; The collision integrals Q_{i,j}^{11} are exponential fit function obtained from 
; Transport properties of high-temperature Jupiter atmosphere components, D. Bruno, C. Catalfamo, M. Capitelli, G. Colonna, O. De Pascale et al., Phys. Plasmas 17, 112315 (2010), doi: 10.1063/1.3495980, Published by the American Institute of Physics
; 
; 
; To obtain these collision integrals, the original data (transport cross section Q^l_{i,j} or elastic collision differential cross section) are obtained from:
; 
; I. Bray, D. A. Konovalov, and I. E. McCarthy, Phys. Rev. A 43, 5878 1991.
; G. P. Gupta and K. C. Mathur, J. Phys. B 13, 1719 1980.
;
; 
;
; 1 atomic unit of square distance = 2.80e-17 cm^2
; 1eV = 11604K

2.80e-17

;        E             T             Q11
;       (eV)         (K)         (a.u.)

0.086217 	 1000 	  133.785640
0.092225 	 1069 	  132.493138
0.098232 	 1139 	  131.223313
0.104239 	 1209 	  129.977093
0.110246 	 1278 	  128.755012
0.116253 	 1348 	  127.557310
0.122260 	 1418 	  126.384003
0.128267 	 1487 	  125.234941
0.134274 	 1557 	  124.109849
0.140282 	 1627 	  123.008363
0.146289 	 1696 	  121.930047
0.152296 	 1766 	  120.874421
0.158303 	 1836 	  119.840969
0.164310 	 1905 	  118.829152
0.170317 	 1975 	  117.838421
0.176324 	 2045 	  116.868218
0.182331 	 2114 	  115.917985
0.188339 	 2184 	  114.987168
0.194346 	 2254 	  114.075217
0.200353 	 2323 	  113.181594
0.206360 	 2393 	  112.305770
0.212367 	 2463 	  111.447226
0.218374 	 2532 	  110.605459
0.224381 	 2602 	  109.779978
0.230388 	 2672 	  108.970305
0.236396 	 2741 	  108.175979
0.242403 	 2811 	  107.396550
0.248410 	 2881 	  106.631584
0.254417 	 2950 	  105.880659
0.260424 	 3020 	  105.143370
0.266431 	 3090 	  104.419322
0.272438 	 3159 	  103.708135
0.278445 	 3229 	  103.009443
0.284453 	 3299 	  102.322889
0.290460 	 3368 	  101.648132
0.296467 	 3438 	  100.984840
0.302474 	 3508 	  100.332693
0.308481 	 3577 	  99.691383
0.314488 	 3647 	  99.060611
0.320495 	 3717 	  98.440090
0.326502 	 3786 	  97.829541
0.332510 	 3856 	  97.228696
0.338517 	 3926 	  96.637295
0.344524 	 3995 	  96.055088
0.350531 	 4065 	  95.481833
0.356538 	 4135 	  94.917295
0.362545 	 4205 	  94.361248
0.368552 	 4274 	  93.813474
0.374559 	 4344 	  93.273760
0.380567 	 4414 	  92.741904
0.386574 	 4483 	  92.217707
0.392581 	 4553 	  91.700978
0.398588 	 4623 	  91.191531
0.404595 	 4692 	  90.689189
0.410602 	 4762 	  90.193777
0.416609 	 4832 	  89.705129
0.422616 	 4901 	  89.223080
0.428624 	 4971 	  88.747476
0.434631 	 5041 	  88.278162
0.440638 	 5110 	  87.814992
0.446645 	 5180 	  87.357822
0.452652 	 5250 	  86.906515
0.458659 	 5319 	  86.460935
0.464666 	 5389 	  86.020952
0.470673 	 5459 	  85.586441
0.476681 	 5528 	  85.157279
0.482688 	 5598 	  84.733346
0.488695 	 5668 	  84.314529
0.494702 	 5737 	  83.900714
0.500709 	 5807 	  83.491794
0.506716 	 5877 	  83.087663
0.512723 	 5946 	  82.688218
0.518730 	 6016 	  82.293360
0.524738 	 6086 	  81.902994
0.530745 	 6155 	  81.517024
0.536752 	 6225 	  81.135360
0.542759 	 6295 	  80.757913
0.548766 	 6364 	  80.384598
0.554773 	 6434 	  80.015330
0.560780 	 6504 	  79.650028
0.566787 	 6573 	  79.288613
0.572795 	 6643 	  78.931009
0.578802 	 6713 	  78.577139
0.584809 	 6782 	  78.226932
0.590816 	 6852 	  77.880316
0.596823 	 6922 	  77.537223
0.602830 	 6991 	  77.197584
0.608837 	 7061 	  76.861336
0.614844 	 7131 	  76.528413
0.620852 	 7201 	  76.198755
0.626859 	 7270 	  75.872300
0.632866 	 7340 	  75.548991
0.638873 	 7410 	  75.228768
0.644880 	 7479 	  74.911577
0.650887 	 7549 	  74.597363
0.656894 	 7619 	  74.286073
0.662901 	 7688 	  73.977655
0.668909 	 7758 	  73.672058
0.674916 	 7828 	  73.369234
0.680923 	 7897 	  73.069134
0.686930 	 7967 	  72.771711
0.692937 	 8037 	  72.476920
0.698944 	 8106 	  72.184716
0.704951 	 8176 	  71.895056
0.710958 	 8246 	  71.607897
0.716966 	 8315 	  71.323197
0.722973 	 8385 	  71.040916
0.728980 	 8455 	  70.761015
0.734987 	 8524 	  70.483454
0.740994 	 8594 	  70.208197
0.747001 	 8664 	  69.935206
0.753008 	 8733 	  69.664444
0.759015 	 8803 	  69.395878
0.765023 	 8873 	  69.129473
0.771030 	 8942 	  68.865194
0.777037 	 9012 	  68.603010
0.783044 	 9082 	  68.342888
0.789051 	 9151 	  68.084796
0.795058 	 9221 	  67.828704
0.801065 	 9291 	  67.574582
0.807072 	 9360 	  67.322401
0.813080 	 9430 	  67.072131
0.819087 	 9500 	  66.823746
0.825094 	 9569 	  66.577216
0.831101 	 9639 	  66.332516
0.837108 	 9709 	  66.089618
0.843115 	 9778 	  65.848498
0.849122 	 9848 	  65.609129
0.855129 	 9918 	  65.371488
0.861137 	 9987 	  65.135550
0.867144 	 10057 	  64.901292
0.873151 	 10127 	  64.668689
0.879158 	 10196 	  64.437720
0.885165 	 10266 	  64.208362
0.891172 	 10336 	  63.980594
0.897179 	 10406 	  63.754394
0.903186 	 10475 	  63.529740
0.909194 	 10545 	  63.306614
0.915201 	 10615 	  63.084994
0.921208 	 10684 	  62.864861
0.927215 	 10754 	  62.646195
0.933222 	 10824 	  62.428978
0.939229 	 10893 	  62.213191
0.945236 	 10963 	  61.998816
0.951243 	 11033 	  61.785835
0.957251 	 11102 	  61.574231
0.963258 	 11172 	  61.363986
0.969265 	 11242 	  61.155083
0.975272 	 11311 	  60.947507
0.981279 	 11381 	  60.741240
0.987286 	 11451 	  60.536267
0.993293 	 11520 	  60.332573
0.999300 	 11590 	  60.130141
1.005308 	 11660 	  59.928958
1.011315 	 11729 	  59.729007
1.017322 	 11799 	  59.530276
1.023329 	 11869 	  59.332748
1.029336 	 11938 	  59.136412
1.035343 	 12008 	  58.941252
1.041350 	 12078 	  58.747256
1.047357 	 12147 	  58.554409
1.053365 	 12217 	  58.362700
1.059372 	 12287 	  58.172115
1.065379 	 12356 	  57.982642
1.071386 	 12426 	  57.794269
1.077393 	 12496 	  57.606982
1.083400 	 12565 	  57.420772
1.089407 	 12635 	  57.235625
1.095415 	 12705 	  57.051531
1.101422 	 12774 	  56.868477
1.107429 	 12844 	  56.686454
1.113436 	 12914 	  56.505450
1.119443 	 12983 	  56.325454
1.125450 	 13053 	  56.146455
1.131457 	 13123 	  55.968444
1.137464 	 13192 	  55.791411
1.143472 	 13262 	  55.615344
1.149479 	 13332 	  55.440235
1.155486 	 13402 	  55.266073
1.161493 	 13471 	  55.092849
1.167500 	 13541 	  54.920554
1.173507 	 13611 	  54.749178
1.179514 	 13680 	  54.578713
1.185521 	 13750 	  54.409148
1.191529 	 13820 	  54.240477
1.197536 	 13889 	  54.072689
1.203543 	 13959 	  53.905776
1.209550 	 14029 	  53.739730
1.215557 	 14098 	  53.574543
1.221564 	 14168 	  53.410207
1.227571 	 14238 	  53.246712
1.233578 	 14307 	  53.084053
1.239586 	 14377 	  52.922220
1.245593 	 14447 	  52.761206
1.251600 	 14516 	  52.601004
1.257607 	 14586 	  52.441605
1.263614 	 14656 	  52.283004
1.269621 	 14725 	  52.125192
1.275628 	 14795 	  51.968163
1.281635 	 14865 	  51.811909
1.287643 	 14934 	  51.656424
1.293650 	 15004 	  51.501700
1.299657 	 15074 	  51.347732
1.305664 	 15143 	  51.194512
1.311671 	 15213 	  51.042034
1.317678 	 15283 	  50.890292
1.323685 	 15352 	  50.739278
1.329692 	 15422 	  50.588988
1.335700 	 15492 	  50.439415
1.341707 	 15561 	  50.290552
1.347714 	 15631 	  50.142394
1.353721 	 15701 	  49.994935
1.359728 	 15770 	  49.848169
1.365735 	 15840 	  49.702090
1.371742 	 15910 	  49.556694
1.377749 	 15979 	  49.411973
1.383757 	 16049 	  49.267922
1.389764 	 16119 	  49.124537
1.395771 	 16188 	  48.981812
1.401778 	 16258 	  48.839741
1.407785 	 16328 	  48.698320
1.413792 	 16397 	  48.557543
1.419799 	 16467 	  48.417404
1.425806 	 16537 	  48.277900
1.431814 	 16607 	  48.139025
1.437821 	 16676 	  48.000774
1.443828 	 16746 	  47.863143
1.449835 	 16816 	  47.726126
1.455842 	 16885 	  47.589719
1.461849 	 16955 	  47.453917
1.467856 	 17025 	  47.318716
1.473863 	 17094 	  47.184111
1.479871 	 17164 	  47.050098
1.485878 	 17234 	  46.916673
1.491885 	 17303 	  46.783830
1.497892 	 17373 	  46.651565
1.503899 	 17443 	  46.519876
1.509906 	 17512 	  46.388756
1.515913 	 17582 	  46.258202
1.521920 	 17652 	  46.128211
1.527928 	 17721 	  45.998777
1.533935 	 17791 	  45.869897
1.539942 	 17861 	  45.741567
1.545949 	 17930 	  45.613783
1.551956 	 18000 	  45.486541
1.557963 	 18070 	  45.359837
1.563970 	 18139 	  45.233668
1.569977 	 18209 	  45.108030
1.575985 	 18279 	  44.982919
1.581992 	 18348 	  44.858331
1.587999 	 18418 	  44.734263
1.594006 	 18488 	  44.610712
1.600013 	 18557 	  44.487673
1.606020 	 18627 	  44.365144
1.612027 	 18697 	  44.243121
1.618034 	 18766 	  44.121600
1.624042 	 18836 	  44.000578
1.630049 	 18906 	  43.880052
1.636056 	 18975 	  43.760018
1.642063 	 19045 	  43.640474
1.648070 	 19115 	  43.521416
1.654077 	 19184 	  43.402840
1.660084 	 19254 	  43.284745
1.666091 	 19324 	  43.167125
1.672099 	 19393 	  43.049980
1.678106 	 19463 	  42.933304
1.684113 	 19533 	  42.817097
1.690120 	 19603 	  42.701353
1.696127 	 19672 	  42.586071
1.702134 	 19742 	  42.471248
1.708141 	 19812 	  42.356880
1.714148 	 19881 	  42.242965
1.720156 	 19951 	  42.129500
1.726163 	 20021 	  42.016482
1.732170 	 20090 	  41.903908
1.738177 	 20160 	  41.791776
1.744184 	 20230 	  41.680083
1.750191 	 20299 	  41.568826
1.756198 	 20369 	  41.458003
1.762205 	 20439 	  41.347610
1.768213 	 20508 	  41.237646
1.774220 	 20578 	  41.128107
1.780227 	 20648 	  41.018992
1.786234 	 20717 	  40.910297
1.792241 	 20787 	  40.802020
1.798248 	 20857 	  40.694159
1.804255 	 20926 	  40.586710
1.810262 	 20996 	  40.479673
1.816270 	 21066 	  40.373044
1.822277 	 21135 	  40.266820
1.828284 	 21205 	  40.161000
1.834291 	 21275 	  40.055581
1.840298 	 21344 	  39.950561
1.846305 	 21414 	  39.845938
1.852312 	 21484 	  39.741709
1.858319 	 21553 	  39.637871
1.864327 	 21623 	  39.534424
1.870334 	 21693 	  39.431363
1.876341 	 21762 	  39.328688
1.882348 	 21832 	  39.226397
1.888355 	 21902 	  39.124486
1.894362 	 21971 	  39.022954
1.900369 	 22041 	  38.921798
1.906376 	 22111 	  38.821017
1.912384 	 22180 	  38.720609
1.918391 	 22250 	  38.620571
1.924398 	 22320 	  38.520901
1.930405 	 22389 	  38.421598
1.936412 	 22459 	  38.322659
1.942419 	 22529 	  38.224082
1.948426 	 22598 	  38.125866
1.954433 	 22668 	  38.028008
1.960441 	 22738 	  37.930506
1.966448 	 22808 	  37.833359
1.972455 	 22877 	  37.736564
1.978462 	 22947 	  37.640121
1.984469 	 23017 	  37.544026
1.990476 	 23086 	  37.448278
1.996483 	 23156 	  37.352875
2.002490 	 23226 	  37.257815
2.008498 	 23295 	  37.163097
2.014505 	 23365 	  37.068718
2.020512 	 23435 	  36.974678
2.026519 	 23504 	  36.880973
2.032526 	 23574 	  36.787603
2.038533 	 23644 	  36.694565
2.044540 	 23713 	  36.601858
2.050547 	 23783 	  36.509481
2.056555 	 23853 	  36.417431
2.062562 	 23922 	  36.325706
2.068569 	 23992 	  36.234306
2.074576 	 24062 	  36.143228
2.080583 	 24131 	  36.052471
2.086590 	 24201 	  35.962033
2.092597 	 24271 	  35.871912
2.098604 	 24340 	  35.782107
2.104612 	 24410 	  35.692617
2.110619 	 24480 	  35.603440
2.116626 	 24549 	  35.514573
2.122633 	 24619 	  35.426016
2.128640 	 24689 	  35.337767
2.134647 	 24758 	  35.249825
2.140654 	 24828 	  35.162188
2.146662 	 24898 	  35.074854
2.152669 	 24967 	  34.987822
2.158676 	 25037 	  34.901090
2.164683 	 25107 	  34.814658
2.170690 	 25176 	  34.728523
2.176697 	 25246 	  34.642684
2.182704 	 25316 	  34.557140
2.188711 	 25385 	  34.471889
2.194719 	 25455 	  34.386929
2.200726 	 25525 	  34.302260
2.206733 	 25594 	  34.217880
2.212740 	 25664 	  34.133788
2.218747 	 25734 	  34.049982
2.224754 	 25804 	  33.966460
2.230761 	 25873 	  33.883222
2.236768 	 25943 	  33.800266
2.242776 	 26013 	  33.717590
2.248783 	 26082 	  33.635194
2.254790 	 26152 	  33.553077
2.260797 	 26222 	  33.471235
2.266804 	 26291 	  33.389670
2.272811 	 26361 	  33.308378
2.278818 	 26431 	  33.227359
2.284825 	 26500 	  33.146612
2.290833 	 26570 	  33.066135
2.296840 	 26640 	  32.985927
2.302847 	 26709 	  32.905987
2.308854 	 26779 	  32.826314
2.314861 	 26849 	  32.746906
2.320868 	 26918 	  32.667761
2.326875 	 26988 	  32.588880
2.332882 	 27058 	  32.510260
2.338890 	 27127 	  32.431901
2.344897 	 27197 	  32.353801
2.350904 	 27267 	  32.275959
2.356911 	 27336 	  32.198374
2.362918 	 27406 	  32.121045
2.368925 	 27476 	  32.043970
2.374932 	 27545 	  31.967149
2.380939 	 27615 	  31.890579
2.386947 	 27685 	  31.814261
2.392954 	 27754 	  31.738193
2.398961 	 27824 	  31.662374
2.404968 	 27894 	  31.586802
2.410975 	 27963 	  31.511477
2.416982 	 28033 	  31.436398
2.422989 	 28103 	  31.361563
2.428996 	 28172 	  31.286971
2.435004 	 28242 	  31.212622
2.441011 	 28312 	  31.138513
2.447018 	 28381 	  31.064645
2.453025 	 28451 	  30.991016
2.459032 	 28521 	  30.917625
2.465039 	 28590 	  30.844470
2.471046 	 28660 	  30.771552
2.477053 	 28730 	  30.698868
2.483061 	 28799 	  30.626418
2.489068 	 28869 	  30.554201
2.495075 	 28939 	  30.482216
2.501082 	 29009 	  30.410462
2.507089 	 29078 	  30.338937
2.513096 	 29148 	  30.267641
2.519103 	 29218 	  30.196573
2.525110 	 29287 	  30.125732
2.531118 	 29357 	  30.055116
2.537125 	 29427 	  29.984726
2.543132 	 29496 	  29.914559
2.549139 	 29566 	  29.844615
2.555146 	 29636 	  29.774893
2.561153 	 29705 	  29.705392
2.567160 	 29775 	  29.636111
2.573167 	 29845 	  29.567049
2.579175 	 29914 	  29.498206
2.585182 	 29984 	  29.429580
2.591189 	 30054 	  29.361170
2.597196 	 30123 	  29.292975
2.603203 	 30193 	  29.224995
2.609210 	 30263 	  29.157229
2.615217 	 30332 	  29.089675
2.621224 	 30402 	  29.022333
2.627232 	 30472 	  28.955202
2.633239 	 30541 	  28.888281
2.639246 	 30611 	  28.821569
2.645253 	 30681 	  28.755066
2.651260 	 30750 	  28.688770
2.657267 	 30820 	  28.622680
2.663274 	 30890 	  28.556796
2.669281 	 30959 	  28.491117
2.675289 	 31029 	  28.425642
2.681296 	 31099 	  28.360370
2.687303 	 31168 	  28.295301
2.693310 	 31238 	  28.230433
2.699317 	 31308 	  28.165765
2.705324 	 31377 	  28.101297
2.711331 	 31447 	  28.037029
2.717338 	 31517 	  27.972958
2.723346 	 31586 	  27.909085
2.729353 	 31656 	  27.845409
2.735360 	 31726 	  27.781928
2.741367 	 31795 	  27.718642
2.747374 	 31865 	  27.655550
2.753381 	 31935 	  27.592652
2.759388 	 32005 	  27.529946
2.765395 	 32074 	  27.467432
2.771403 	 32144 	  27.405109
2.777410 	 32214 	  27.342977
2.783417 	 32283 	  27.281034
2.789424 	 32353 	  27.219279
2.795431 	 32423 	  27.157713
2.801438 	 32492 	  27.096334
2.807445 	 32562 	  27.035141
2.813452 	 32632 	  26.974134
2.819460 	 32701 	  26.913312
2.825467 	 32771 	  26.852674
2.831474 	 32841 	  26.792220
2.837481 	 32910 	  26.731948
2.843488 	 32980 	  26.671858
2.849495 	 33050 	  26.611950
2.855502 	 33119 	  26.552223
2.861509 	 33189 	  26.492675
2.867517 	 33259 	  26.433306
2.873524 	 33328 	  26.374116
2.879531 	 33398 	  26.315104
2.885538 	 33468 	  26.256269
2.891545 	 33537 	  26.197610
2.897552 	 33607 	  26.139127
2.903559 	 33677 	  26.080818
2.909566 	 33746 	  26.022684
2.915574 	 33816 	  25.964724
2.921581 	 33886 	  25.906937
2.927588 	 33955 	  25.849321
2.933595 	 34025 	  25.791878
2.939602 	 34095 	  25.734605
2.945609 	 34164 	  25.677503
2.951616 	 34234 	  25.620570
2.957623 	 34304 	  25.563806
2.963631 	 34373 	  25.507210
2.969638 	 34443 	  25.450782
2.975645 	 34513 	  25.394521
2.981652 	 34582 	  25.338427
2.987659 	 34652 	  25.282498
2.993666 	 34722 	  25.226734
2.999673 	 34791 	  25.171134
3.005680 	 34861 	  25.115699
3.011688 	 34931 	  25.060426
3.017695 	 35001 	  25.005316
3.023702 	 35070 	  24.950368
3.029709 	 35140 	  24.895581
3.035716 	 35210 	  24.840955
3.041723 	 35279 	  24.786489
3.047730 	 35349 	  24.732183
3.053737 	 35419 	  24.678035
3.059745 	 35488 	  24.624045
3.065752 	 35558 	  24.570213
3.071759 	 35628 	  24.516539
3.077766 	 35697 	  24.463020
3.083773 	 35767 	  24.409658
3.089780 	 35837 	  24.356451
3.095787 	 35906 	  24.303398
3.101794 	 35976 	  24.250500
3.107802 	 36046 	  24.197755
3.113809 	 36115 	  24.145163
3.119816 	 36185 	  24.092723
3.125823 	 36255 	  24.040436
3.131830 	 36324 	  23.988299
3.137837 	 36394 	  23.936313
3.143844 	 36464 	  23.884477
3.149851 	 36533 	  23.832791
3.155859 	 36603 	  23.781254
3.161866 	 36673 	  23.729865
3.167873 	 36742 	  23.678624
3.173880 	 36812 	  23.627531
3.179887 	 36882 	  23.576584
3.185894 	 36951 	  23.525783
3.191901 	 37021 	  23.475129
3.197909 	 37091 	  23.424619
3.203916 	 37160 	  23.374254
3.209923 	 37230 	  23.324033
3.215930 	 37300 	  23.273955
3.221937 	 37369 	  23.224021
3.227944 	 37439 	  23.174229
3.233951 	 37509 	  23.124579
3.239958 	 37578 	  23.075070
3.245966 	 37648 	  23.025703
3.251973 	 37718 	  22.976476
3.257980 	 37787 	  22.927388
3.263987 	 37857 	  22.878440
3.269994 	 37927 	  22.829631
3.276001 	 37996 	  22.780961
3.282008 	 38066 	  22.732428
3.288015 	 38136 	  22.684033
3.294023 	 38206 	  22.635774
3.300030 	 38275 	  22.587652
3.306037 	 38345 	  22.539666
3.312044 	 38415 	  22.491815
3.318051 	 38484 	  22.444099
3.324058 	 38554 	  22.396517
3.330065 	 38624 	  22.349069
3.336072 	 38693 	  22.301755
3.342080 	 38763 	  22.254574
3.348087 	 38833 	  22.207525
3.354094 	 38902 	  22.160608
3.360101 	 38972 	  22.113823
3.366108 	 39042 	  22.067168
3.372115 	 39111 	  22.020645
3.378122 	 39181 	  21.974251
3.384129 	 39251 	  21.927987
3.390137 	 39320 	  21.881852
3.396144 	 39390 	  21.835846
3.402151 	 39460 	  21.789968
3.408158 	 39529 	  21.744218
3.414165 	 39599 	  21.698596
3.420172 	 39669 	  21.653100
3.426179 	 39738 	  21.607730
3.432186 	 39808 	  21.562487
3.438194 	 39878 	  21.517369
3.444201 	 39947 	  21.472376
3.450208 	 40017 	  21.427508
3.456215 	 40087 	  21.382764
3.462222 	 40156 	  21.338144
3.468229 	 40226 	  21.293647
3.474236 	 40296 	  21.249273
3.480243 	 40365 	  21.205022
3.486251 	 40435 	  21.160892
3.492258 	 40505 	  21.116884
3.498265 	 40574 	  21.072998
3.504272 	 40644 	  21.029232
3.510279 	 40714 	  20.985586
3.516286 	 40783 	  20.942060
3.522293 	 40853 	  20.898654
3.528300 	 40923 	  20.855367
3.534308 	 40992 	  20.812198
3.540315 	 41062 	  20.769148
3.546322 	 41132 	  20.726215
3.552329 	 41202 	  20.683400
3.558336 	 41271 	  20.640702
3.564343 	 41341 	  20.598120
3.570350 	 41411 	  20.555655
3.576357 	 41480 	  20.513305
3.582365 	 41550 	  20.471071
3.588372 	 41620 	  20.428951
3.594379 	 41689 	  20.386946
3.600386 	 41759 	  20.345056
3.606393 	 41829 	  20.303279
3.612400 	 41898 	  20.261616
3.618407 	 41968 	  20.220065
3.624414 	 42038 	  20.178627
3.630422 	 42107 	  20.137302
3.636429 	 42177 	  20.096088
3.642436 	 42247 	  20.054985
3.648443 	 42316 	  20.013994
3.654450 	 42386 	  19.973113
3.660457 	 42456 	  19.932343
3.666464 	 42525 	  19.891682
3.672471 	 42595 	  19.851132
3.678479 	 42665 	  19.810690
3.684486 	 42734 	  19.770357
3.690493 	 42804 	  19.730132
3.696500 	 42874 	  19.690016
3.702507 	 42943 	  19.650007
3.708514 	 43013 	  19.610105
3.714521 	 43083 	  19.570311
3.720528 	 43152 	  19.530623
3.726536 	 43222 	  19.491041
3.732543 	 43292 	  19.451565
3.738550 	 43361 	  19.412194
3.744557 	 43431 	  19.372929
3.750564 	 43501 	  19.333768
3.756571 	 43570 	  19.294712
3.762578 	 43640 	  19.255760
3.768585 	 43710 	  19.216912
3.774593 	 43779 	  19.178167
3.780600 	 43849 	  19.139525
3.786607 	 43919 	  19.100986
3.792614 	 43988 	  19.062549
3.798621 	 44058 	  19.024214
3.804628 	 44128 	  18.985980
3.810635 	 44197 	  18.947848
3.816642 	 44267 	  18.909817
3.822650 	 44337 	  18.871886
3.828657 	 44407 	  18.834056
3.834664 	 44476 	  18.796326
3.840671 	 44546 	  18.758695
3.846678 	 44616 	  18.721164
3.852685 	 44685 	  18.683731
3.858692 	 44755 	  18.646397
3.864699 	 44825 	  18.609162
3.870707 	 44894 	  18.572024
3.876714 	 44964 	  18.534984
3.882721 	 45034 	  18.498041
3.888728 	 45103 	  18.461195
3.894735 	 45173 	  18.424446
3.900742 	 45243 	  18.387793
3.906749 	 45312 	  18.351236
3.912756 	 45382 	  18.314775
3.918764 	 45452 	  18.278410
3.924771 	 45521 	  18.242139
3.930778 	 45591 	  18.205963
3.936785 	 45661 	  18.169881
3.942792 	 45730 	  18.133894
3.948799 	 45800 	  18.098000
3.954806 	 45870 	  18.062200
3.960813 	 45939 	  18.026493
3.966821 	 46009 	  17.990879
3.972828 	 46079 	  17.955358
3.978835 	 46148 	  17.919928
3.984842 	 46218 	  17.884591
3.990849 	 46288 	  17.849346
3.996856 	 46357 	  17.814191
4.002863 	 46427 	  17.779128
4.008870 	 46497 	  17.744156
4.014878 	 46566 	  17.709274
4.020885 	 46636 	  17.674482
4.026892 	 46706 	  17.639780
4.032899 	 46775 	  17.605168
4.038906 	 46845 	  17.570645
4.044913 	 46915 	  17.536211
4.050920 	 46984 	  17.501865
4.056927 	 47054 	  17.467608
4.062935 	 47124 	  17.433440
4.068942 	 47193 	  17.399359
4.074949 	 47263 	  17.365365
4.080956 	 47333 	  17.331459
4.086963 	 47403 	  17.297640
4.092970 	 47472 	  17.263908
4.098977 	 47542 	  17.230262
4.104984 	 47612 	  17.196702
4.110992 	 47681 	  17.163228
4.116999 	 47751 	  17.129839
4.123006 	 47821 	  17.096536
4.129013 	 47890 	  17.063318
4.135020 	 47960 	  17.030185
4.141027 	 48030 	  16.997136
4.147034 	 48099 	  16.964171
4.153041 	 48169 	  16.931291
4.159049 	 48239 	  16.898494
4.165056 	 48308 	  16.865780
4.171063 	 48378 	  16.833150
4.177070 	 48448 	  16.800602
4.183077 	 48517 	  16.768137
4.189084 	 48587 	  16.735754
4.195091 	 48657 	  16.703454
4.201099 	 48726 	  16.671235
4.207106 	 48796 	  16.639098
4.213113 	 48866 	  16.607042
4.219120 	 48935 	  16.575067
4.225127 	 49005 	  16.543173
4.231134 	 49075 	  16.511360
4.237141 	 49144 	  16.479626
4.243148 	 49214 	  16.447973
4.249156 	 49284 	  16.416399
4.255163 	 49353 	  16.384905
4.261170 	 49423 	  16.353490
4.267177 	 49493 	  16.322154
4.273184 	 49562 	  16.290897
4.279191 	 49632 	  16.259719
4.285198 	 49702 	  16.228618
4.291205 	 49771 	  16.197596
4.297213 	 49841 	  16.166651
4.303220 	 49911 	  16.135784
4.309227 	 49980 	  16.104994
4.315234 	 50050 	  16.074281
4.321241 	 50120 	  16.043645
4.327248 	 50189 	  16.013085
4.333255 	 50259 	  15.982602
4.339262 	 50329 	  15.952195
4.345270 	 50398 	  15.921863
4.351277 	 50468 	  15.891607
4.357284 	 50538 	  15.861427
4.363291 	 50608 	  15.831321
4.369298 	 50677 	  15.801291
4.375305 	 50747 	  15.771335
4.381312 	 50817 	  15.741453
4.387319 	 50886 	  15.711645
4.393327 	 50956 	  15.681912
4.399334 	 51026 	  15.652252
4.405341 	 51095 	  15.622666
4.411348 	 51165 	  15.593152
4.417355 	 51235 	  15.563712
4.423362 	 51304 	  15.534345
4.429369 	 51374 	  15.505050
4.435376 	 51444 	  15.475827
4.441384 	 51513 	  15.446677
4.447391 	 51583 	  15.417598
4.453398 	 51653 	  15.388591
4.459405 	 51722 	  15.359656
4.465412 	 51792 	  15.330792
4.471419 	 51862 	  15.301998
4.477426 	 51931 	  15.273276
4.483433 	 52001 	  15.244624
4.489441 	 52071 	  15.216042
4.495448 	 52140 	  15.187530
4.501455 	 52210 	  15.159089
4.507462 	 52280 	  15.130717
4.513469 	 52349 	  15.102414
4.519476 	 52419 	  15.074181
4.525483 	 52489 	  15.046016
4.531490 	 52558 	  15.017921
4.537498 	 52628 	  14.989894
4.543505 	 52698 	  14.961936
4.549512 	 52767 	  14.934045
4.555519 	 52837 	  14.906223
4.561526 	 52907 	  14.878468
4.567533 	 52976 	  14.850781
4.573540 	 53046 	  14.823162
4.579547 	 53116 	  14.795609
4.585555 	 53185 	  14.768124
4.591562 	 53255 	  14.740705
4.597569 	 53325 	  14.713353
4.603576 	 53394 	  14.686067
4.609583 	 53464 	  14.658847
4.615590 	 53534 	  14.631693
4.621597 	 53604 	  14.604605
4.627604 	 53673 	  14.577582
4.633612 	 53743 	  14.550625
4.639619 	 53813 	  14.523732
4.645626 	 53882 	  14.496905
4.651633 	 53952 	  14.470143
4.657640 	 54022 	  14.443445
4.663647 	 54091 	  14.416811
4.669654 	 54161 	  14.390241
4.675661 	 54231 	  14.363736
4.681669 	 54300 	  14.337294
4.687676 	 54370 	  14.310915
4.693683 	 54440 	  14.284600
4.699690 	 54509 	  14.258349
4.705697 	 54579 	  14.232160
4.711704 	 54649 	  14.206034
4.717711 	 54718 	  14.179970
4.723718 	 54788 	  14.153969
4.729726 	 54858 	  14.128030
4.735733 	 54927 	  14.102154
4.741740 	 54997 	  14.076339
4.747747 	 55067 	  14.050586
4.753754 	 55136 	  14.024894
4.759761 	 55206 	  13.999263
4.765768 	 55276 	  13.973694
4.771775 	 55345 	  13.948186
4.777783 	 55415 	  13.922738
4.783790 	 55485 	  13.897351
4.789797 	 55554 	  13.872024
4.795804 	 55624 	  13.846757
4.801811 	 55694 	  13.821551
4.807818 	 55763 	  13.796404
4.813825 	 55833 	  13.771317
4.819832 	 55903 	  13.746290
4.825840 	 55972 	  13.721321
4.831847 	 56042 	  13.696412
4.837854 	 56112 	  13.671562
4.843861 	 56181 	  13.646771
4.849868 	 56251 	  13.622038
4.855875 	 56321 	  13.597364
4.861882 	 56390 	  13.572747
4.867889 	 56460 	  13.548189
4.873897 	 56530 	  13.523689
4.879904 	 56599 	  13.499247
4.885911 	 56669 	  13.474862
4.891918 	 56739 	  13.450535
4.897925 	 56809 	  13.426264
4.903932 	 56878 	  13.402051
4.909939 	 56948 	  13.377895
4.915946 	 57018 	  13.353795
4.921954 	 57087 	  13.329752
4.927961 	 57157 	  13.305766
4.933968 	 57227 	  13.281835
4.939975 	 57296 	  13.257961
4.945982 	 57366 	  13.234143
4.951989 	 57436 	  13.210380
4.957996 	 57505 	  13.186673
4.964003 	 57575 	  13.163021
4.970011 	 57645 	  13.139424
4.976018 	 57714 	  13.115883
4.982025 	 57784 	  13.092396
4.988032 	 57854 	  13.068964
4.994039 	 57923 	  13.045587
5.000046 	 57993 	  13.022264
5.006053 	 58063 	  12.998995
5.012060 	 58132 	  12.975781
5.018068 	 58202 	  12.952620
5.024075 	 58272 	  12.929514
5.030082 	 58341 	  12.906460
5.036089 	 58411 	  12.883461
5.042096 	 58481 	  12.860514
5.048103 	 58550 	  12.837621
5.054110 	 58620 	  12.814781
5.060117 	 58690 	  12.791994
5.066125 	 58759 	  12.769259
5.072132 	 58829 	  12.746577
5.078139 	 58899 	  12.723948
5.084146 	 58968 	  12.701370
5.090153 	 59038 	  12.678845
5.096160 	 59108 	  12.656371
5.102167 	 59177 	  12.633950
5.108174 	 59247 	  12.611580
5.114182 	 59317 	  12.589261
5.120189 	 59386 	  12.566994
5.126196 	 59456 	  12.544778
5.132203 	 59526 	  12.522613
5.138210 	 59595 	  12.500499
5.144217 	 59665 	  12.478436
5.150224 	 59735 	  12.456423
5.156231 	 59805 	  12.434461
5.162239 	 59874 	  12.412549
5.168246 	 59944 	  12.390687
5.174253 	 60014 	  12.368876
5.180260 	 60083 	  12.347114
5.186267 	 60153 	  12.325402
5.192274 	 60223 	  12.303739
5.198281 	 60292 	  12.282126
5.204288 	 60362 	  12.260562
5.210296 	 60432 	  12.239048
5.216303 	 60501 	  12.217582
5.222310 	 60571 	  12.196166
5.228317 	 60641 	  12.174798
5.234324 	 60710 	  12.153478
5.240331 	 60780 	  12.132207
5.246338 	 60850 	  12.110985
5.252346 	 60919 	  12.089810
5.258353 	 60989 	  12.068684
5.264360 	 61059 	  12.047606
5.270367 	 61128 	  12.026575
5.276374 	 61198 	  12.005592
5.282381 	 61268 	  11.984656
5.288388 	 61337 	  11.963768
5.294395 	 61407 	  11.942927
5.300403 	 61477 	  11.922134
5.306410 	 61546 	  11.901387
5.312417 	 61616 	  11.880687
5.318424 	 61686 	  11.860033
5.324431 	 61755 	  11.839427
5.330438 	 61825 	  11.818866
5.336445 	 61895 	  11.798352
5.342452 	 61964 	  11.777885
5.348460 	 62034 	  11.757463
5.354467 	 62104 	  11.737087
5.360474 	 62173 	  11.716757
5.366481 	 62243 	  11.696472
5.372488 	 62313 	  11.676233
5.378495 	 62382 	  11.656040
5.384502 	 62452 	  11.635892
5.390509 	 62522 	  11.615788
5.396517 	 62591 	  11.595730
5.402524 	 62661 	  11.575717
5.408531 	 62731 	  11.555749
5.414538 	 62801 	  11.535825
5.420545 	 62870 	  11.515945
5.426552 	 62940 	  11.496110
5.432559 	 63010 	  11.476320
5.438566 	 63079 	  11.456573
5.444574 	 63149 	  11.436871
5.450581 	 63219 	  11.417212
5.456588 	 63288 	  11.397597
5.462595 	 63358 	  11.378026
5.468602 	 63428 	  11.358498
5.474609 	 63497 	  11.339013
5.480616 	 63567 	  11.319572
5.486623 	 63637 	  11.300174
5.492631 	 63706 	  11.280819
5.498638 	 63776 	  11.261507
5.504645 	 63846 	  11.242238
5.510652 	 63915 	  11.223012
5.516659 	 63985 	  11.203828
5.522666 	 64055 	  11.184686
5.528673 	 64124 	  11.165587
5.534680 	 64194 	  11.146530
5.540688 	 64264 	  11.127515
5.546695 	 64333 	  11.108542
5.552702 	 64403 	  11.089611
5.558709 	 64473 	  11.070721
5.564716 	 64542 	  11.051874
5.570723 	 64612 	  11.033067
5.576730 	 64682 	  11.014302
5.582737 	 64751 	  10.995579
5.588745 	 64821 	  10.976896
5.594752 	 64891 	  10.958255
5.600759 	 64960 	  10.939654
5.606766 	 65030 	  10.921095
5.612773 	 65100 	  10.902576
5.618780 	 65169 	  10.884097
5.624787 	 65239 	  10.865660
5.630794 	 65309 	  10.847262
5.636802 	 65378 	  10.828905
5.642809 	 65448 	  10.810588
5.648816 	 65518 	  10.792311
5.654823 	 65587 	  10.774073
5.660830 	 65657 	  10.755876
5.666837 	 65727 	  10.737719
5.672844 	 65796 	  10.719601
5.678851 	 65866 	  10.701522
5.684859 	 65936 	  10.683483
5.690866 	 66006 	  10.665483
5.696873 	 66075 	  10.647522
5.702880 	 66145 	  10.629601
5.708887 	 66215 	  10.611718
5.714894 	 66284 	  10.593874
5.720901 	 66354 	  10.576069
5.726908 	 66424 	  10.558302
5.732916 	 66493 	  10.540575
5.738923 	 66563 	  10.522885
5.744930 	 66633 	  10.505234
5.750937 	 66702 	  10.487621
5.756944 	 66772 	  10.470046
5.762951 	 66842 	  10.452509
5.768958 	 66911 	  10.435010
5.774965 	 66981 	  10.417549
5.780973 	 67051 	  10.400125
5.786980 	 67120 	  10.382740
5.792987 	 67190 	  10.365391
5.798994 	 67260 	  10.348080
5.805001 	 67329 	  10.330806
5.811008 	 67399 	  10.313570
5.817015 	 67469 	  10.296370
5.823022 	 67538 	  10.279208
5.829030 	 67608 	  10.262082
5.835037 	 67678 	  10.244994
5.841044 	 67747 	  10.227942
5.847051 	 67817 	  10.210926
5.853058 	 67887 	  10.193947
5.859065 	 67956 	  10.177004
5.865072 	 68026 	  10.160098
5.871079 	 68096 	  10.143228
5.877087 	 68165 	  10.126394
5.883094 	 68235 	  10.109596
5.889101 	 68305 	  10.092834
5.895108 	 68374 	  10.076108
5.901115 	 68444 	  10.059417
5.907122 	 68514 	  10.042762
5.913129 	 68583 	  10.026143
5.919136 	 68653 	  10.009558
5.925144 	 68723 	  9.993010
5.931151 	 68792 	  9.976496
5.937158 	 68862 	  9.960018
5.943165 	 68932 	  9.943575
5.949172 	 69002 	  9.927166
5.955179 	 69071 	  9.910793
5.961186 	 69141 	  9.894454
5.967193 	 69211 	  9.878150
5.973201 	 69280 	  9.861881
5.979208 	 69350 	  9.845646
5.985215 	 69420 	  9.829445
5.991222 	 69489 	  9.813279
5.997229 	 69559 	  9.797147
6.003236 	 69629 	  9.781049
6.009243 	 69698 	  9.764985
6.015250 	 69768 	  9.748955
6.021258 	 69838 	  9.732959
6.027265 	 69907 	  9.716996
6.033272 	 69977 	  9.701068
6.039279 	 70047 	  9.685173
6.045286 	 70116 	  9.669311
6.051293 	 70186 	  9.653483
6.057300 	 70256 	  9.637688
6.063307 	 70325 	  9.621926
6.069315 	 70395 	  9.606198
6.075322 	 70465 	  9.590502
6.081329 	 70534 	  9.574840
6.087336 	 70604 	  9.559210
6.093343 	 70674 	  9.543613
6.099350 	 70743 	  9.528049
6.105357 	 70813 	  9.512518
6.111364 	 70883 	  9.497019
6.117372 	 70952 	  9.481552
6.123379 	 71022 	  9.466118
6.129386 	 71092 	  9.450716
6.135393 	 71161 	  9.435346
6.141400 	 71231 	  9.420009
6.147407 	 71301 	  9.404703
6.153414 	 71370 	  9.389429
6.159421 	 71440 	  9.374187
6.165429 	 71510 	  9.358977
6.171436 	 71579 	  9.343799
6.177443 	 71649 	  9.328652
6.183450 	 71719 	  9.313537
6.189457 	 71788 	  9.298453
6.195464 	 71858 	  9.283401
6.201471 	 71928 	  9.268380
6.207478 	 71997 	  9.253390
6.213486 	 72067 	  9.238431
6.219493 	 72137 	  9.223503
6.225500 	 72207 	  9.208606
6.231507 	 72276 	  9.193740
6.237514 	 72346 	  9.178905
6.243521 	 72416 	  9.164100
6.249528 	 72485 	  9.149326
6.255535 	 72555 	  9.134583
6.261543 	 72625 	  9.119870
6.267550 	 72694 	  9.105187
6.273557 	 72764 	  9.090535
6.279564 	 72834 	  9.075913
6.285571 	 72903 	  9.061321
6.291578 	 72973 	  9.046759
6.297585 	 73043 	  9.032228
6.303593 	 73112 	  9.017726
6.309600 	 73182 	  9.003254
6.315607 	 73252 	  8.988811
6.321614 	 73321 	  8.974399
6.327621 	 73391 	  8.960016
6.333628 	 73461 	  8.945662
6.339635 	 73530 	  8.931339
6.345642 	 73600 	  8.917044
6.351650 	 73670 	  8.902779
6.357657 	 73739 	  8.888542
6.363664 	 73809 	  8.874336
6.369671 	 73879 	  8.860158
6.375678 	 73948 	  8.846009
6.381685 	 74018 	  8.831889
6.387692 	 74088 	  8.817798
6.393699 	 74157 	  8.803736
6.399707 	 74227 	  8.789702
6.405714 	 74297 	  8.775697
6.411721 	 74366 	  8.761721
6.417728 	 74436 	  8.747773
6.423735 	 74506 	  8.733853
6.429742 	 74575 	  8.719962
6.435749 	 74645 	  8.706099
6.441756 	 74715 	  8.692264
6.447764 	 74784 	  8.678458
6.453771 	 74854 	  8.664679
6.459778 	 74924 	  8.650929
6.465785 	 74993 	  8.637206
6.471792 	 75063 	  8.623511
6.477799 	 75133 	  8.609844
6.483806 	 75203 	  8.596205
6.489813 	 75272 	  8.582593
6.495821 	 75342 	  8.569009
6.501828 	 75412 	  8.555452
6.507835 	 75481 	  8.541923
6.513842 	 75551 	  8.528421
6.519849 	 75621 	  8.514946
6.525856 	 75690 	  8.501498
6.531863 	 75760 	  8.488078
6.537870 	 75830 	  8.474685
6.543878 	 75899 	  8.461318
6.549885 	 75969 	  8.447979
6.555892 	 76039 	  8.434666
6.561899 	 76108 	  8.421381
6.567906 	 76178 	  8.408122
6.573913 	 76248 	  8.394889
6.579920 	 76317 	  8.381683
6.585927 	 76387 	  8.368504
6.591935 	 76457 	  8.355351
6.597942 	 76526 	  8.342225
6.603949 	 76596 	  8.329125
6.609956 	 76666 	  8.316051
6.615963 	 76735 	  8.303003
6.621970 	 76805 	  8.289982
6.627977 	 76875 	  8.276986
6.633984 	 76944 	  8.264017
6.639992 	 77014 	  8.251073
6.645999 	 77084 	  8.238155
6.652006 	 77153 	  8.225263
6.658013 	 77223 	  8.212397
6.664020 	 77293 	  8.199557
6.670027 	 77362 	  8.186742
6.676034 	 77432 	  8.173952
6.682041 	 77502 	  8.161188
6.688049 	 77571 	  8.148450
6.694056 	 77641 	  8.135736
6.700063 	 77711 	  8.123048
6.706070 	 77780 	  8.110386
6.712077 	 77850 	  8.097748
6.718084 	 77920 	  8.085136
6.724091 	 77989 	  8.072548
6.730098 	 78059 	  8.059986
6.736106 	 78129 	  8.047448
6.742113 	 78198 	  8.034935
6.748120 	 78268 	  8.022447
6.754127 	 78338 	  8.009984
6.760134 	 78408 	  7.997546
6.766141 	 78477 	  7.985132
6.772148 	 78547 	  7.972742
6.778155 	 78617 	  7.960377
6.784163 	 78686 	  7.948036
6.790170 	 78756 	  7.935720
6.796177 	 78826 	  7.923428
6.802184 	 78895 	  7.911160
6.808191 	 78965 	  7.898917
6.814198 	 79035 	  7.886697
6.820205 	 79104 	  7.874502
6.826212 	 79174 	  7.862331
6.832220 	 79244 	  7.850183
6.838227 	 79313 	  7.838059
6.844234 	 79383 	  7.825960
6.850241 	 79453 	  7.813883
6.856248 	 79522 	  7.801831
6.862255 	 79592 	  7.789802
6.868262 	 79662 	  7.777797
6.874269 	 79731 	  7.765815
6.880277 	 79801 	  7.753857
6.886284 	 79871 	  7.741922
6.892291 	 79940 	  7.730011
6.898298 	 80010 	  7.718123
6.904305 	 80080 	  7.706258
6.910312 	 80149 	  7.694416
6.916319 	 80219 	  7.682597
6.922326 	 80289 	  7.670802
6.928334 	 80358 	  7.659029
6.934341 	 80428 	  7.647279
6.940348 	 80498 	  7.635553
6.946355 	 80567 	  7.623849
6.952362 	 80637 	  7.612168
6.958369 	 80707 	  7.600509
6.964376 	 80776 	  7.588873
6.970383 	 80846 	  7.577260
6.976391 	 80916 	  7.565669
6.982398 	 80985 	  7.554101
6.988405 	 81055 	  7.542556
6.994412 	 81125 	  7.531032
7.000419 	 81194 	  7.519531
7.006426 	 81264 	  7.508053
7.012433 	 81334 	  7.496596
7.018440 	 81404 	  7.485162
7.024448 	 81473 	  7.473750
7.030455 	 81543 	  7.462359
7.036462 	 81613 	  7.450991
7.042469 	 81682 	  7.439645
7.048476 	 81752 	  7.428321
7.054483 	 81822 	  7.417018
7.060490 	 81891 	  7.405738
7.066497 	 81961 	  7.394479
7.072505 	 82031 	  7.383242
7.078512 	 82100 	  7.372026
7.084519 	 82170 	  7.360832
7.090526 	 82240 	  7.349660
7.096533 	 82309 	  7.338509
7.102540 	 82379 	  7.327379
7.108547 	 82449 	  7.316271
7.114554 	 82518 	  7.305184
7.120562 	 82588 	  7.294118
7.126569 	 82658 	  7.283074
7.132576 	 82727 	  7.272051
7.138583 	 82797 	  7.261049
7.144590 	 82867 	  7.250068
7.150597 	 82936 	  7.239108
7.156604 	 83006 	  7.228169
7.162611 	 83076 	  7.217250
7.168619 	 83145 	  7.206353
7.174626 	 83215 	  7.195477
7.180633 	 83285 	  7.184621
7.186640 	 83354 	  7.173786
7.192647 	 83424 	  7.162972
7.198654 	 83494 	  7.152178
7.204661 	 83563 	  7.141405
7.210668 	 83633 	  7.130652
7.216676 	 83703 	  7.119920
7.222683 	 83772 	  7.109208
7.228690 	 83842 	  7.098517
7.234697 	 83912 	  7.087846
7.240704 	 83981 	  7.077195
7.246711 	 84051 	  7.066564
7.252718 	 84121 	  7.055954
7.258725 	 84190 	  7.045364
7.264733 	 84260 	  7.034793
7.270740 	 84330 	  7.024243
7.276747 	 84400 	  7.013713
7.282754 	 84469 	  7.003203
7.288761 	 84539 	  6.992712
7.294768 	 84609 	  6.982242
7.300775 	 84678 	  6.971791
7.306783 	 84748 	  6.961360
7.312790 	 84818 	  6.950948
7.318797 	 84887 	  6.940557
7.324804 	 84957 	  6.930185
7.330811 	 85027 	  6.919832
7.336818 	 85096 	  6.909499
7.342825 	 85166 	  6.899185
7.348832 	 85236 	  6.888891
7.354840 	 85305 	  6.878616
7.360847 	 85375 	  6.868361
7.366854 	 85445 	  6.858125
7.372861 	 85514 	  6.847908
7.378868 	 85584 	  6.837710
7.384875 	 85654 	  6.827531
7.390882 	 85723 	  6.817372
7.396889 	 85793 	  6.807231
7.402897 	 85863 	  6.797110
7.408904 	 85932 	  6.787007
7.414911 	 86002 	  6.776924
7.420918 	 86072 	  6.766859
7.426925 	 86141 	  6.756813
7.432932 	 86211 	  6.746786
7.438939 	 86281 	  6.736777
7.444946 	 86350 	  6.726788
7.450954 	 86420 	  6.716817
7.456961 	 86490 	  6.706864
7.462968 	 86559 	  6.696930
7.468975 	 86629 	  6.687015
7.474982 	 86699 	  6.677118
7.480989 	 86768 	  6.667239
7.486996 	 86838 	  6.657379
7.493003 	 86908 	  6.647537
7.499011 	 86977 	  6.637714
7.505018 	 87047 	  6.627909
7.511025 	 87117 	  6.618122
7.517032 	 87186 	  6.608353
7.523039 	 87256 	  6.598602
7.529046 	 87326 	  6.588870
7.535053 	 87395 	  6.579155
7.541060 	 87465 	  6.569458
7.547068 	 87535 	  6.559780
7.553075 	 87605 	  6.550119
7.559082 	 87674 	  6.540476
7.565089 	 87744 	  6.530851
7.571096 	 87814 	  6.521244
7.577103 	 87883 	  6.511655
7.583110 	 87953 	  6.502083
7.589117 	 88023 	  6.492529
7.595125 	 88092 	  6.482992
7.601132 	 88162 	  6.473474
7.607139 	 88232 	  6.463972
7.613146 	 88301 	  6.454488
7.619153 	 88371 	  6.445022
7.625160 	 88441 	  6.435573
7.631167 	 88510 	  6.426142
7.637174 	 88580 	  6.416727
7.643182 	 88650 	  6.407330
7.649189 	 88719 	  6.397951
7.655196 	 88789 	  6.388588
7.661203 	 88859 	  6.379243
7.667210 	 88928 	  6.369915
7.673217 	 88998 	  6.360604
7.679224 	 89068 	  6.351310
7.685231 	 89137 	  6.342033
7.691239 	 89207 	  6.332773
7.697246 	 89277 	  6.323530
7.703253 	 89346 	  6.314304
7.709260 	 89416 	  6.305095
7.715267 	 89486 	  6.295902
7.721274 	 89555 	  6.286727
7.727281 	 89625 	  6.277568
7.733288 	 89695 	  6.268426
7.739296 	 89764 	  6.259300
7.745303 	 89834 	  6.250191
7.751310 	 89904 	  6.241099
7.757317 	 89973 	  6.232023
7.763324 	 90043 	  6.222964
7.769331 	 90113 	  6.213921
7.775338 	 90182 	  6.204895
7.781345 	 90252 	  6.195885
7.787353 	 90322 	  6.186892
7.793360 	 90391 	  6.177914
7.799367 	 90461 	  6.168954
7.805374 	 90531 	  6.160009
7.811381 	 90601 	  6.151080
7.817388 	 90670 	  6.142168
7.823395 	 90740 	  6.133272
7.829402 	 90810 	  6.124392
7.835410 	 90879 	  6.115528
7.841417 	 90949 	  6.106680
7.847424 	 91019 	  6.097848
7.853431 	 91088 	  6.089032
7.859438 	 91158 	  6.080232
7.865445 	 91228 	  6.071448
7.871452 	 91297 	  6.062680
7.877459 	 91367 	  6.053927
7.883467 	 91437 	  6.045191
7.889474 	 91506 	  6.036470
7.895481 	 91576 	  6.027764
7.901488 	 91646 	  6.019075
7.907495 	 91715 	  6.010401
7.913502 	 91785 	  6.001743
7.919509 	 91855 	  5.993100
7.925516 	 91924 	  5.984472
7.931524 	 91994 	  5.975861
7.937531 	 92064 	  5.967264
7.943538 	 92133 	  5.958683
7.949545 	 92203 	  5.950118
7.955552 	 92273 	  5.941568
7.961559 	 92342 	  5.933033
7.967566 	 92412 	  5.924513
7.973573 	 92482 	  5.916009
7.979581 	 92551 	  5.907520
7.985588 	 92621 	  5.899046
7.991595 	 92691 	  5.890587
7.997602 	 92760 	  5.882143
8.003609 	 92830 	  5.873715
8.009616 	 92900 	  5.865301
8.015623 	 92969 	  5.856903
8.021630 	 93039 	  5.848519
8.027638 	 93109 	  5.840150
8.033645 	 93178 	  5.831797
8.039652 	 93248 	  5.823458
8.045659 	 93318 	  5.815134
8.051666 	 93387 	  5.806825
8.057673 	 93457 	  5.798530
8.063680 	 93527 	  5.790250
8.069687 	 93596 	  5.781985
8.075695 	 93666 	  5.773735
8.081702 	 93736 	  5.765499
8.087709 	 93806 	  5.757278
8.093716 	 93875 	  5.749072
8.099723 	 93945 	  5.740880
8.105730 	 94015 	  5.732702
8.111737 	 94084 	  5.724539
8.117744 	 94154 	  5.716391
8.123752 	 94224 	  5.708257
8.129759 	 94293 	  5.700137
8.135766 	 94363 	  5.692031
8.141773 	 94433 	  5.683940
8.147780 	 94502 	  5.675863
8.153787 	 94572 	  5.667801
8.159794 	 94642 	  5.659753
8.165801 	 94711 	  5.651718
8.171809 	 94781 	  5.643698
8.177816 	 94851 	  5.635692
8.183823 	 94920 	  5.627701
8.189830 	 94990 	  5.619723
8.195837 	 95060 	  5.611759
8.201844 	 95129 	  5.603810
8.207851 	 95199 	  5.595874
8.213858 	 95269 	  5.587952
8.219866 	 95338 	  5.580044
8.225873 	 95408 	  5.572150
8.231880 	 95478 	  5.564270
8.237887 	 95547 	  5.556403
8.243894 	 95617 	  5.548551
8.249901 	 95687 	  5.540712
8.255908 	 95756 	  5.532887
8.261915 	 95826 	  5.525075
8.267923 	 95896 	  5.517278
8.273930 	 95965 	  5.509494
8.279937 	 96035 	  5.501723
8.285944 	 96105 	  5.493966
8.291951 	 96174 	  5.486223
8.297958 	 96244 	  5.478493
8.303965 	 96314 	  5.470776
8.309972 	 96383 	  5.463073
8.315980 	 96453 	  5.455384
8.321987 	 96523 	  5.447707
8.327994 	 96592 	  5.440045
8.334001 	 96662 	  5.432395
8.340008 	 96732 	  5.424759
8.346015 	 96802 	  5.417136
8.352022 	 96871 	  5.409526
8.358030 	 96941 	  5.401930
8.364037 	 97011 	  5.394347
8.370044 	 97080 	  5.386776
8.376051 	 97150 	  5.379219
8.382058 	 97220 	  5.371675
8.388065 	 97289 	  5.364145
8.394072 	 97359 	  5.356627
8.400079 	 97429 	  5.349122
8.406087 	 97498 	  5.341630
8.412094 	 97568 	  5.334151
8.418101 	 97638 	  5.326685
8.424108 	 97707 	  5.319232
8.430115 	 97777 	  5.311792
8.436122 	 97847 	  5.304365
8.442129 	 97916 	  5.296950
8.448136 	 97986 	  5.289549
8.454144 	 98056 	  5.282160
8.460151 	 98125 	  5.274784
8.466158 	 98195 	  5.267420
8.472165 	 98265 	  5.260069
8.478172 	 98334 	  5.252731
8.484179 	 98404 	  5.245405
8.490186 	 98474 	  5.238092
8.496193 	 98543 	  5.230792
8.502201 	 98613 	  5.223504
8.508208 	 98683 	  5.216229
8.514215 	 98752 	  5.208966
8.520222 	 98822 	  5.201715
8.526229 	 98892 	  5.194477
8.532236 	 98961 	  5.187252
8.538243 	 99031 	  5.180038
8.544250 	 99101 	  5.172837
8.550258 	 99170 	  5.165649
8.556265 	 99240 	  5.158473
8.562272 	 99310 	  5.151309
8.568279 	 99379 	  5.144157
8.574286 	 99449 	  5.137017
8.580293 	 99519 	  5.129890
8.586300 	 99588 	  5.122775
8.592307 	 99658 	  5.115671
8.598315 	 99728 	  5.108580
8.604322 	 99797 	  5.101502
8.610329 	 99867 	  5.094435
8.616336 	 99937 	  5.087380
8.622343 	 100007 	  5.080337
8.628350 	 100076 	  5.073306
8.634357 	 100146 	  5.066287
8.640364 	 100216 	  5.059280
8.646372 	 100285 	  5.052285
8.652379 	 100355 	  5.045302
8.658386 	 100425 	  5.038331
8.664393 	 100494 	  5.031371
8.670400 	 100564 	  5.024423
8.676407 	 100634 	  5.017487
8.682414 	 100703 	  5.010563
8.688421 	 100773 	  5.003651
8.694429 	 100843 	  4.996750
8.700436 	 100912 	  4.989861
8.706443 	 100982 	  4.982983
8.712450 	 101052 	  4.976117
8.718457 	 101121 	  4.969263
8.724464 	 101191 	  4.962421
8.730471 	 101261 	  4.955589
8.736478 	 101330 	  4.948770
8.742486 	 101400 	  4.941962
8.748493 	 101470 	  4.935165
8.754500 	 101539 	  4.928380
8.760507 	 101609 	  4.921606
8.766514 	 101679 	  4.914844
8.772521 	 101748 	  4.908093
8.778528 	 101818 	  4.901353
8.784535 	 101888 	  4.894625
8.790543 	 101957 	  4.887908
8.796550 	 102027 	  4.881202
8.802557 	 102097 	  4.874507
8.808564 	 102166 	  4.867824
8.814571 	 102236 	  4.861152
8.820578 	 102306 	  4.854491
8.826585 	 102375 	  4.847841
8.832592 	 102445 	  4.841203
8.838600 	 102515 	  4.834575
8.844607 	 102584 	  4.827959
8.850614 	 102654 	  4.821354
8.856621 	 102724 	  4.814759
8.862628 	 102793 	  4.808176
8.868635 	 102863 	  4.801604
8.874642 	 102933 	  4.795042
8.880649 	 103003 	  4.788492
8.886657 	 103072 	  4.781953
8.892664 	 103142 	  4.775424
8.898671 	 103212 	  4.768906
8.904678 	 103281 	  4.762400
8.910685 	 103351 	  4.755904
8.916692 	 103421 	  4.749418
8.922699 	 103490 	  4.742944
8.928706 	 103560 	  4.736480
8.934714 	 103630 	  4.730027
8.940721 	 103699 	  4.723585
8.946728 	 103769 	  4.717154
8.952735 	 103839 	  4.710733
8.958742 	 103908 	  4.704323
8.964749 	 103978 	  4.697923
8.970756 	 104048 	  4.691534
8.976763 	 104117 	  4.685156
8.982771 	 104187 	  4.678788
8.988778 	 104257 	  4.672431
8.994785 	 104326 	  4.666084
9.000792 	 104396 	  4.659748
9.006799 	 104466 	  4.653422
9.012806 	 104535 	  4.647107
9.018813 	 104605 	  4.640802
9.024820 	 104675 	  4.634507
9.030828 	 104744 	  4.628223
9.036835 	 104814 	  4.621950
9.042842 	 104884 	  4.615686
9.048849 	 104953 	  4.609433
9.054856 	 105023 	  4.603190
9.060863 	 105093 	  4.596958
9.066870 	 105162 	  4.590735
9.072877 	 105232 	  4.584523
9.078885 	 105302 	  4.578322
9.084892 	 105371 	  4.572130
9.090899 	 105441 	  4.565948
9.096906 	 105511 	  4.559777
9.102913 	 105580 	  4.553616
9.108920 	 105650 	  4.547465
9.114927 	 105720 	  4.541324
9.120934 	 105789 	  4.535193
9.126942 	 105859 	  4.529072
9.132949 	 105929 	  4.522961
9.138956 	 105998 	  4.516860
9.144963 	 106068 	  4.510769
9.150970 	 106138 	  4.504688
9.156977 	 106208 	  4.498617
9.162984 	 106277 	  4.492556
9.168991 	 106347 	  4.486505
9.174999 	 106417 	  4.480464
9.181006 	 106486 	  4.474432
9.187013 	 106556 	  4.468410
9.193020 	 106626 	  4.462399
9.199027 	 106695 	  4.456397
9.205034 	 106765 	  4.450404
9.211041 	 106835 	  4.444422
9.217048 	 106904 	  4.438449
9.223056 	 106974 	  4.432486
9.229063 	 107044 	  4.426532
9.235070 	 107113 	  4.420589
9.241077 	 107183 	  4.414655
9.247084 	 107253 	  4.408730
9.253091 	 107322 	  4.402815
9.259098 	 107392 	  4.396910
9.265105 	 107462 	  4.391015
9.271113 	 107531 	  4.385128
9.277120 	 107601 	  4.379252
9.283127 	 107671 	  4.373385
9.289134 	 107740 	  4.367527
9.295141 	 107810 	  4.361679
9.301148 	 107880 	  4.355840
9.307155 	 107949 	  4.350011
9.313162 	 108019 	  4.344191
9.319170 	 108089 	  4.338381
9.325177 	 108158 	  4.332580
9.331184 	 108228 	  4.326788
9.337191 	 108298 	  4.321006
9.343198 	 108367 	  4.315233
9.349205 	 108437 	  4.309469
9.355212 	 108507 	  4.303715
9.361219 	 108576 	  4.297970
9.367227 	 108646 	  4.292234
9.373234 	 108716 	  4.286507
9.379241 	 108785 	  4.280790
9.385248 	 108855 	  4.275081
9.391255 	 108925 	  4.269382
9.397262 	 108994 	  4.263692
9.403269 	 109064 	  4.258011
9.409277 	 109134 	  4.252340
9.415284 	 109204 	  4.246677
9.421291 	 109273 	  4.241023
9.427298 	 109343 	  4.235379
9.433305 	 109413 	  4.229743
9.439312 	 109482 	  4.224117
9.445319 	 109552 	  4.218499
9.451326 	 109622 	  4.212891
9.457334 	 109691 	  4.207291
9.463341 	 109761 	  4.201701
9.469348 	 109831 	  4.196119
9.475355 	 109900 	  4.190546
9.481362 	 109970 	  4.184982
9.487369 	 110040 	  4.179427
9.493376 	 110109 	  4.173881
9.499383 	 110179 	  4.168344
9.505391 	 110249 	  4.162815
9.511398 	 110318 	  4.157296
9.517405 	 110388 	  4.151785
9.523412 	 110458 	  4.146283
9.529419 	 110527 	  4.140789
9.535426 	 110597 	  4.135305
9.541433 	 110667 	  4.129829
9.547440 	 110736 	  4.124361
9.553448 	 110806 	  4.118903
9.559455 	 110876 	  4.113453
9.565462 	 110945 	  4.108011
9.571469 	 111015 	  4.102579
9.577476 	 111085 	  4.097155
9.583483 	 111154 	  4.091739
9.589490 	 111224 	  4.086332
9.595497 	 111294 	  4.080934
9.601505 	 111363 	  4.075544
9.607512 	 111433 	  4.070163
9.613519 	 111503 	  4.064790
9.619526 	 111572 	  4.059426
9.625533 	 111642 	  4.054070
9.631540 	 111712 	  4.048723
9.637547 	 111781 	  4.043384
9.643554 	 111851 	  4.038053
9.649562 	 111921 	  4.032731
9.655569 	 111990 	  4.027417
9.661576 	 112060 	  4.022112
9.667583 	 112130 	  4.016815
9.673590 	 112199 	  4.011526
9.679597 	 112269 	  4.006246
9.685604 	 112339 	  4.000973
9.691611 	 112409 	  3.995710
9.697619 	 112478 	  3.990454
9.703626 	 112548 	  3.985207
9.709633 	 112618 	  3.979968
9.715640 	 112687 	  3.974737
9.721647 	 112757 	  3.969514
9.727654 	 112827 	  3.964300
9.733661 	 112896 	  3.959093
9.739668 	 112966 	  3.953895
9.745676 	 113036 	  3.948705
9.751683 	 113105 	  3.943523
9.757690 	 113175 	  3.938349
9.763697 	 113245 	  3.933184
9.769704 	 113314 	  3.928026
9.775711 	 113384 	  3.922876
9.781718 	 113454 	  3.917735
9.787725 	 113523 	  3.912601
9.793733 	 113593 	  3.907476
9.799740 	 113663 	  3.902358
9.805747 	 113732 	  3.897249
9.811754 	 113802 	  3.892147
9.817761 	 113872 	  3.887053
9.823768 	 113941 	  3.881967
9.829775 	 114011 	  3.876890
9.835782 	 114081 	  3.871820
9.841790 	 114150 	  3.866758
9.847797 	 114220 	  3.861703
9.853804 	 114290 	  3.856657
9.859811 	 114359 	  3.851618
9.865818 	 114429 	  3.846588
9.871825 	 114499 	  3.841565
9.877832 	 114568 	  3.836550
9.883839 	 114638 	  3.831542
9.889847 	 114708 	  3.826543
9.895854 	 114777 	  3.821551
9.901861 	 114847 	  3.816567
9.907868 	 114917 	  3.811590
9.913875 	 114986 	  3.806621
9.919882 	 115056 	  3.801660
9.925889 	 115126 	  3.796707
9.931896 	 115195 	  3.791761
9.937904 	 115265 	  3.786823
9.943911 	 115335 	  3.781892
9.949918 	 115405 	  3.776970
9.955925 	 115474 	  3.772054
9.961932 	 115544 	  3.767146
9.967939 	 115614 	  3.762246
9.973946 	 115683 	  3.757354
9.979953 	 115753 	  3.752468
9.985961 	 115823 	  3.747591
9.991968 	 115892 	  3.742721
9.997975 	 115962 	  3.737858
10.003982 	 116032 	  3.733003
10.009989 	 116101 	  3.728155
10.015996 	 116171 	  3.723315
10.022003 	 116241 	  3.718482
10.028010 	 116310 	  3.713657
10.034018 	 116380 	  3.708838
10.040025 	 116450 	  3.704028
10.046032 	 116519 	  3.699224
10.052039 	 116589 	  3.694428
10.058046 	 116659 	  3.689640
10.064053 	 116728 	  3.684859
10.070060 	 116798 	  3.680085
10.076067 	 116868 	  3.675318
10.082075 	 116937 	  3.670558
10.088082 	 117007 	  3.665806
10.094089 	 117077 	  3.661061
10.100096 	 117146 	  3.656324
10.106103 	 117216 	  3.651593
10.112110 	 117286 	  3.646870
10.118117 	 117355 	  3.642154
10.124124 	 117425 	  3.637445
10.130132 	 117495 	  3.632743
10.136139 	 117564 	  3.628049
10.142146 	 117634 	  3.623361
10.148153 	 117704 	  3.618681
10.154160 	 117773 	  3.614008
10.160167 	 117843 	  3.609342
10.166174 	 117913 	  3.604683
10.172181 	 117982 	  3.600031
10.178189 	 118052 	  3.595386
10.184196 	 118122 	  3.590748
10.190203 	 118191 	  3.586117
10.196210 	 118261 	  3.581494
10.202217 	 118331 	  3.576877
10.208224 	 118401 	  3.572267
10.214231 	 118470 	  3.567664
10.220238 	 118540 	  3.563068
10.226246 	 118610 	  3.558480
10.232253 	 118679 	  3.553898
10.238260 	 118749 	  3.549322
10.244267 	 118819 	  3.544754
10.250274 	 118888 	  3.540193
10.256281 	 118958 	  3.535639
10.262288 	 119028 	  3.531091
10.268295 	 119097 	  3.526550
10.274303 	 119167 	  3.522017
10.280310 	 119237 	  3.517490
10.286317 	 119306 	  3.512969
10.292324 	 119376 	  3.508456
10.298331 	 119446 	  3.503949
10.304338 	 119515 	  3.499450
10.310345 	 119585 	  3.494957
10.316352 	 119655 	  3.490470
10.322360 	 119724 	  3.485991
10.328367 	 119794 	  3.481518
10.334374 	 119864 	  3.477052
10.340381 	 119933 	  3.472592
10.346388 	 120003 	  3.468139
10.352395 	 120073 	  3.463693
10.358402 	 120142 	  3.459254
10.364409 	 120212 	  3.454821
10.370417 	 120282 	  3.450395
10.376424 	 120351 	  3.445975
10.382431 	 120421 	  3.441562
10.388438 	 120491 	  3.437156
10.394445 	 120560 	  3.432756
10.400452 	 120630 	  3.428363
10.406459 	 120700 	  3.423976
10.412467 	 120769 	  3.419596
10.418474 	 120839 	  3.415223
10.424481 	 120909 	  3.410856
10.430488 	 120978 	  3.406495
10.436495 	 121048 	  3.402141
10.442502 	 121118 	  3.397793
10.448509 	 121187 	  3.393452
10.454516 	 121257 	  3.389118
10.460524 	 121327 	  3.384789
10.466531 	 121396 	  3.380468
10.472538 	 121466 	  3.376152
10.478545 	 121536 	  3.371843
10.484552 	 121606 	  3.367541
10.490559 	 121675 	  3.363245
10.496566 	 121745 	  3.358955
10.502573 	 121815 	  3.354671
10.508581 	 121884 	  3.350394
10.514588 	 121954 	  3.346123
10.520595 	 122024 	  3.341859
10.526602 	 122093 	  3.337601
10.532609 	 122163 	  3.333349
10.538616 	 122233 	  3.329103
10.544623 	 122302 	  3.324864
10.550630 	 122372 	  3.320631
10.556638 	 122442 	  3.316404
10.562645 	 122511 	  3.312184
10.568652 	 122581 	  3.307970
10.574659 	 122651 	  3.303761
10.580666 	 122720 	  3.299560
10.586673 	 122790 	  3.295364
10.592680 	 122860 	  3.291174
10.598687 	 122929 	  3.286991
10.604695 	 122999 	  3.282814
10.610702 	 123069 	  3.278643
10.616709 	 123138 	  3.274478
10.622716 	 123208 	  3.270319
10.628723 	 123278 	  3.266166
10.634730 	 123347 	  3.262020
10.640737 	 123417 	  3.257879
10.646744 	 123487 	  3.253745
10.652752 	 123556 	  3.249616
10.658759 	 123626 	  3.245494
10.664766 	 123696 	  3.241378
10.670773 	 123765 	  3.237268
10.676780 	 123835 	  3.233163
10.682787 	 123905 	  3.229065
10.688794 	 123974 	  3.224973
10.694801 	 124044 	  3.220887
10.700809 	 124114 	  3.216806
10.706816 	 124183 	  3.212732
10.712823 	 124253 	  3.208664
10.718830 	 124323 	  3.204601
10.724837 	 124392 	  3.200545
10.730844 	 124462 	  3.196494
10.736851 	 124532 	  3.192449
10.742858 	 124602 	  3.188411
10.748866 	 124671 	  3.184378
10.754873 	 124741 	  3.180351
10.760880 	 124811 	  3.176330
10.766887 	 124880 	  3.172314
10.772894 	 124950 	  3.168305
10.778901 	 125020 	  3.164301
10.784908 	 125089 	  3.160303
10.790915 	 125159 	  3.156311
10.796923 	 125229 	  3.152325
10.802930 	 125298 	  3.148345
10.808937 	 125368 	  3.144370
10.814944 	 125438 	  3.140401
10.820951 	 125507 	  3.136438
10.826958 	 125577 	  3.132480
10.832965 	 125647 	  3.128529
10.838972 	 125716 	  3.124583
10.844980 	 125786 	  3.120643
10.850987 	 125856 	  3.116708
10.856994 	 125925 	  3.112779
10.863001 	 125995 	  3.108856
10.869008 	 126065 	  3.104938
10.875015 	 126134 	  3.101027
10.881022 	 126204 	  3.097120
10.887029 	 126274 	  3.093220
10.893037 	 126343 	  3.089325
10.899044 	 126413 	  3.085435
10.905051 	 126483 	  3.081552
10.911058 	 126552 	  3.077673
10.917065 	 126622 	  3.073801
10.923072 	 126692 	  3.069934
10.929079 	 126761 	  3.066072
10.935086 	 126831 	  3.062217
10.941094 	 126901 	  3.058366
10.947101 	 126970 	  3.054521
10.953108 	 127040 	  3.050682
10.959115 	 127110 	  3.046848
10.965122 	 127179 	  3.043020
10.971129 	 127249 	  3.039197
10.977136 	 127319 	  3.035380
10.983143 	 127388 	  3.031568
10.989151 	 127458 	  3.027762
10.995158 	 127528 	  3.023961
11.001165 	 127597 	  3.020165
11.007172 	 127667 	  3.016375
11.013179 	 127737 	  3.012591
11.019186 	 127807 	  3.008811
11.025193 	 127876 	  3.005038
11.031200 	 127946 	  3.001269
11.037208 	 128016 	  2.997506
11.043215 	 128085 	  2.993748
11.049222 	 128155 	  2.989996
11.055229 	 128225 	  2.986249
11.061236 	 128294 	  2.982507
11.067243 	 128364 	  2.978771
11.073250 	 128434 	  2.975040
11.079257 	 128503 	  2.971314
11.085265 	 128573 	  2.967594
11.091272 	 128643 	  2.963879
11.097279 	 128712 	  2.960169
11.103286 	 128782 	  2.956465
11.109293 	 128852 	  2.952765
11.115300 	 128921 	  2.949071
11.121307 	 128991 	  2.945383
11.127314 	 129061 	  2.941699
11.133322 	 129130 	  2.938021
11.139329 	 129200 	  2.934348
11.145336 	 129270 	  2.930680
11.151343 	 129339 	  2.927017
11.157350 	 129409 	  2.923359
11.163357 	 129479 	  2.919707
11.169364 	 129548 	  2.916060
11.175371 	 129618 	  2.912418
11.181379 	 129688 	  2.908781
11.187386 	 129757 	  2.905149
11.193393 	 129827 	  2.901523
11.199400 	 129897 	  2.897901
11.205407 	 129966 	  2.894285
11.211414 	 130036 	  2.890674
11.217421 	 130106 	  2.887067
11.223428 	 130175 	  2.883466
11.229436 	 130245 	  2.879870
11.235443 	 130315 	  2.876279
11.241450 	 130384 	  2.872693
11.247457 	 130454 	  2.869112
11.253464 	 130524 	  2.865537
11.259471 	 130593 	  2.861966
11.265478 	 130663 	  2.858400
11.271485 	 130733 	  2.854839
11.277493 	 130803 	  2.851283
11.283500 	 130872 	  2.847733
11.289507 	 130942 	  2.844187
11.295514 	 131012 	  2.840646
11.301521 	 131081 	  2.837110
11.307528 	 131151 	  2.833579
11.313535 	 131221 	  2.830053
11.319542 	 131290 	  2.826532
11.325550 	 131360 	  2.823016
11.331557 	 131430 	  2.819505
11.337564 	 131499 	  2.815999
11.343571 	 131569 	  2.812497
11.349578 	 131639 	  2.809001
11.355585 	 131708 	  2.805509
11.361592 	 131778 	  2.802022
11.367599 	 131848 	  2.798541
11.373607 	 131917 	  2.795064
11.379614 	 131987 	  2.791591
11.385621 	 132057 	  2.788124
11.391628 	 132126 	  2.784662
11.397635 	 132196 	  2.781204
11.403642 	 132266 	  2.777751
11.409649 	 132335 	  2.774303
11.415656 	 132405 	  2.770860
11.421664 	 132475 	  2.767421
11.427671 	 132544 	  2.763988
11.433678 	 132614 	  2.760559
11.439685 	 132684 	  2.757135
11.445692 	 132753 	  2.753715
11.451699 	 132823 	  2.750300
11.457706 	 132893 	  2.746890
11.463714 	 132962 	  2.743485
11.469721 	 133032 	  2.740085
11.475728 	 133102 	  2.736689
11.481735 	 133171 	  2.733298
11.487742 	 133241 	  2.729912
11.493749 	 133311 	  2.726530
11.499756 	 133380 	  2.723153
11.505763 	 133450 	  2.719780
11.511771 	 133520 	  2.716413
11.517778 	 133589 	  2.713050
11.523785 	 133659 	  2.709691
11.529792 	 133729 	  2.706338
11.535799 	 133798 	  2.702988
11.541806 	 133868 	  2.699644
11.547813 	 133938 	  2.696304
11.553820 	 134008 	  2.692969
11.559828 	 134077 	  2.689638
11.565835 	 134147 	  2.686312
11.571842 	 134217 	  2.682990
11.577849 	 134286 	  2.679673
11.583856 	 134356 	  2.676361
11.589863 	 134426 	  2.673053
11.595870 	 134495 	  2.669750
11.601877 	 134565 	  2.666451
11.607885 	 134635 	  2.663156
11.613892 	 134704 	  2.659867
11.619899 	 134774 	  2.656581
11.625906 	 134844 	  2.653301
11.631913 	 134913 	  2.650025
11.637920 	 134983 	  2.646753
11.643927 	 135053 	  2.643485
11.649934 	 135122 	  2.640223
11.655942 	 135192 	  2.636964
11.661949 	 135262 	  2.633710
11.667956 	 135331 	  2.630461
11.673963 	 135401 	  2.627216
11.679970 	 135471 	  2.623975
11.685977 	 135540 	  2.620739
11.691984 	 135610 	  2.617508
11.697991 	 135680 	  2.614280
11.703999 	 135749 	  2.611057
11.710006 	 135819 	  2.607839
11.716013 	 135889 	  2.604625
11.722020 	 135958 	  2.601415
11.728027 	 136028 	  2.598209
11.734034 	 136098 	  2.595008
11.740041 	 136167 	  2.591812
11.746048 	 136237 	  2.588619
11.752056 	 136307 	  2.585431
11.758063 	 136376 	  2.582248
11.764070 	 136446 	  2.579068
11.770077 	 136516 	  2.575893
11.776084 	 136585 	  2.572723
11.782091 	 136655 	  2.569556
11.788098 	 136725 	  2.566394
11.794105 	 136794 	  2.563236
11.800113 	 136864 	  2.560083
11.806120 	 136934 	  2.556933
11.812127 	 137004 	  2.553788
11.818134 	 137073 	  2.550648
11.824141 	 137143 	  2.547511
11.830148 	 137213 	  2.544379
11.836155 	 137282 	  2.541251
11.842162 	 137352 	  2.538127
11.848170 	 137422 	  2.535007
11.854177 	 137491 	  2.531892
11.860184 	 137561 	  2.528781
11.866191 	 137631 	  2.525674
11.872198 	 137700 	  2.522571
11.878205 	 137770 	  2.519472
11.884212 	 137840 	  2.516378
11.890219 	 137909 	  2.513288
11.896227 	 137979 	  2.510201
11.902234 	 138049 	  2.507119
11.908241 	 138118 	  2.504042
11.914248 	 138188 	  2.500968
11.920255 	 138258 	  2.497898
11.926262 	 138327 	  2.494833
11.932269 	 138397 	  2.491772
11.938276 	 138467 	  2.488714
11.944284 	 138536 	  2.485661
11.950291 	 138606 	  2.482612
11.956298 	 138676 	  2.479567
11.962305 	 138745 	  2.476526
11.968312 	 138815 	  2.473490
11.974319 	 138885 	  2.470457
11.980326 	 138954 	  2.467428
11.986333 	 139024 	  2.464404
11.992341 	 139094 	  2.461383
11.998348 	 139163 	  2.458367
12.004355 	 139233 	  2.455354
12.010362 	 139303 	  2.452346
12.016369 	 139372 	  2.449341
12.022376 	 139442 	  2.446341
12.028383 	 139512 	  2.443344
12.034390 	 139581 	  2.440352
12.040398 	 139651 	  2.437363
12.046405 	 139721 	  2.434379
12.052412 	 139790 	  2.431398
12.058419 	 139860 	  2.428422
12.064426 	 139930 	  2.425449
12.070433 	 140000 	  2.422480
12.076440 	 140069 	  2.419516
12.082447 	 140139 	  2.416555
12.088455 	 140209 	  2.413598
12.094462 	 140278 	  2.410645
12.100469 	 140348 	  2.407696
12.106476 	 140418 	  2.404751
12.112483 	 140487 	  2.401810
12.118490 	 140557 	  2.398873
12.124497 	 140627 	  2.395940
12.130504 	 140696 	  2.393010
12.136512 	 140766 	  2.390084
12.142519 	 140836 	  2.387163
12.148526 	 140905 	  2.384245
12.154533 	 140975 	  2.381331
12.160540 	 141045 	  2.378421
12.166547 	 141114 	  2.375514
12.172554 	 141184 	  2.372612
12.178561 	 141254 	  2.369713
12.184569 	 141323 	  2.366818
12.190576 	 141393 	  2.363928
12.196583 	 141463 	  2.361040
12.202590 	 141532 	  2.358157
12.208597 	 141602 	  2.355277
12.214604 	 141672 	  2.352402
12.220611 	 141741 	  2.349530
12.226618 	 141811 	  2.346661
12.232626 	 141881 	  2.343797
12.238633 	 141950 	  2.340936
12.244640 	 142020 	  2.338079
12.250647 	 142090 	  2.335226
12.256654 	 142159 	  2.332377
12.262661 	 142229 	  2.329531
12.268668 	 142299 	  2.326689
12.274675 	 142368 	  2.323851
12.280683 	 142438 	  2.321017
12.286690 	 142508 	  2.318186
12.292697 	 142577 	  2.315359
12.298704 	 142647 	  2.312535
12.304711 	 142717 	  2.309716
12.310718 	 142786 	  2.306900
12.316725 	 142856 	  2.304087
12.322732 	 142926 	  2.301279
12.328740 	 142995 	  2.298474
12.334747 	 143065 	  2.295673
12.340754 	 143135 	  2.292875
12.346761 	 143205 	  2.290081
12.352768 	 143274 	  2.287291
12.358775 	 143344 	  2.284504
12.364782 	 143414 	  2.281721
12.370789 	 143483 	  2.278941
12.376797 	 143553 	  2.276166
12.382804 	 143623 	  2.273393
12.388811 	 143692 	  2.270625
12.394818 	 143762 	  2.267860
12.400825 	 143832 	  2.265099
12.406832 	 143901 	  2.262341
12.412839 	 143971 	  2.259587
12.418846 	 144041 	  2.256836
12.424854 	 144110 	  2.254089
12.430861 	 144180 	  2.251345
12.436868 	 144250 	  2.248605
12.442875 	 144319 	  2.245869
12.448882 	 144389 	  2.243136
12.454889 	 144459 	  2.240407
12.460896 	 144528 	  2.237681
12.466903 	 144598 	  2.234959
12.472911 	 144668 	  2.232240
12.478918 	 144737 	  2.229525
12.484925 	 144807 	  2.226813
12.490932 	 144877 	  2.224105
12.496939 	 144946 	  2.221401
12.502946 	 145016 	  2.218699
12.508953 	 145086 	  2.216002
12.514961 	 145155 	  2.213308
12.520968 	 145225 	  2.210617
12.526975 	 145295 	  2.207930
12.532982 	 145364 	  2.205246
12.538989 	 145434 	  2.202565
12.544996 	 145504 	  2.199889
12.551003 	 145573 	  2.197215
12.557010 	 145643 	  2.194545
12.563018 	 145713 	  2.191879
12.569025 	 145782 	  2.189216
12.575032 	 145852 	  2.186556
12.581039 	 145922 	  2.183900
12.587046 	 145991 	  2.181247
12.593053 	 146061 	  2.178597
12.599060 	 146131 	  2.175951
12.605067 	 146201 	  2.173308
12.611075 	 146270 	  2.170669
12.617082 	 146340 	  2.168033
12.623089 	 146410 	  2.165401
12.629096 	 146479 	  2.162772
12.635103 	 146549 	  2.160146
12.641110 	 146619 	  2.157523
12.647117 	 146688 	  2.154904
12.653124 	 146758 	  2.152289
12.659132 	 146828 	  2.149676
12.665139 	 146897 	  2.147067
12.671146 	 146967 	  2.144462
12.677153 	 147037 	  2.141859
12.683160 	 147106 	  2.139260
12.689167 	 147176 	  2.136664
12.695174 	 147246 	  2.134072
12.701181 	 147315 	  2.131483
12.707189 	 147385 	  2.128897
12.713196 	 147455 	  2.126314
12.719203 	 147524 	  2.123735
12.725210 	 147594 	  2.121159
12.731217 	 147664 	  2.118587
12.737224 	 147733 	  2.116017
12.743231 	 147803 	  2.113451
12.749238 	 147873 	  2.110888
12.755246 	 147942 	  2.108328
12.761253 	 148012 	  2.105772
12.767260 	 148082 	  2.103219
12.773267 	 148151 	  2.100669
12.779274 	 148221 	  2.098122
12.785281 	 148291 	  2.095579
12.791288 	 148360 	  2.093039
12.797295 	 148430 	  2.090502
12.803303 	 148500 	  2.087968
12.809310 	 148569 	  2.085437
12.815317 	 148639 	  2.082910
12.821324 	 148709 	  2.080386
12.827331 	 148778 	  2.077865
12.833338 	 148848 	  2.075347
12.839345 	 148918 	  2.072832
12.845352 	 148987 	  2.070321
12.851360 	 149057 	  2.067813
12.857367 	 149127 	  2.065308
12.863374 	 149196 	  2.062806
12.869381 	 149266 	  2.060307
12.875388 	 149336 	  2.057811
12.881395 	 149406 	  2.055319
12.887402 	 149475 	  2.052829
12.893409 	 149545 	  2.050343
12.899417 	 149615 	  2.047860
12.905424 	 149684 	  2.045380
12.911431 	 149754 	  2.042903
12.917438 	 149824 	  2.040429
12.923445 	 149893 	  2.037959
12.929452 	 149963 	  2.035491
12.935459 	 150033 	  2.033027
12.941466 	 150102 	  2.030565
12.947474 	 150172 	  2.028107
12.953481 	 150242 	  2.025652
12.959488 	 150311 	  2.023200
12.965495 	 150381 	  2.020751
12.971502 	 150451 	  2.018305
12.977509 	 150520 	  2.015862
12.983516 	 150590 	  2.013422
12.989523 	 150660 	  2.010985
12.995531 	 150729 	  2.008551
13.001538 	 150799 	  2.006121
13.007545 	 150869 	  2.003693
13.013552 	 150938 	  2.001268
13.019559 	 151008 	  1.998847
13.025566 	 151078 	  1.996428
13.031573 	 151147 	  1.994012
13.037580 	 151217 	  1.991600
13.043588 	 151287 	  1.989190
13.049595 	 151356 	  1.986784
13.055602 	 151426 	  1.984380
13.061609 	 151496 	  1.981979
13.067616 	 151565 	  1.979582
13.073623 	 151635 	  1.977187
13.079630 	 151705 	  1.974796
13.085637 	 151774 	  1.972407
13.091645 	 151844 	  1.970021
13.097652 	 151914 	  1.967638
13.103659 	 151983 	  1.965259
13.109666 	 152053 	  1.962882
13.115673 	 152123 	  1.960508
13.121680 	 152192 	  1.958137
13.127687 	 152262 	  1.955769
13.133694 	 152332 	  1.953404
13.139702 	 152402 	  1.951042
13.145709 	 152471 	  1.948683
13.151716 	 152541 	  1.946326
13.157723 	 152611 	  1.943973
13.163730 	 152680 	  1.941622
13.169737 	 152750 	  1.939275
13.175744 	 152820 	  1.936930
13.181751 	 152889 	  1.934588
13.187759 	 152959 	  1.932249
13.193766 	 153029 	  1.929913
13.199773 	 153098 	  1.927580
13.205780 	 153168 	  1.925250
13.211787 	 153238 	  1.922923
13.217794 	 153307 	  1.920598
13.223801 	 153377 	  1.918276
13.229808 	 153447 	  1.915958
13.235816 	 153516 	  1.913642
13.241823 	 153586 	  1.911329
13.247830 	 153656 	  1.909018
13.253837 	 153725 	  1.906711
13.259844 	 153795 	  1.904406
13.265851 	 153865 	  1.902105
13.271858 	 153934 	  1.899806
13.277865 	 154004 	  1.897509
13.283873 	 154074 	  1.895216
13.289880 	 154143 	  1.892926
13.295887 	 154213 	  1.890638
13.301894 	 154283 	  1.888353
13.307901 	 154352 	  1.886071
13.313908 	 154422 	  1.883792
13.319915 	 154492 	  1.881515
13.325922 	 154561 	  1.879242
13.331930 	 154631 	  1.876971
13.337937 	 154701 	  1.874702
13.343944 	 154770 	  1.872437
13.349951 	 154840 	  1.870174
13.355958 	 154910 	  1.867915
13.361965 	 154979 	  1.865658
13.367972 	 155049 	  1.863403
13.373979 	 155119 	  1.861152
13.379987 	 155188 	  1.858903
13.385994 	 155258 	  1.856657
13.392001 	 155328 	  1.854413
13.398008 	 155397 	  1.852173
13.404015 	 155467 	  1.849935
13.410022 	 155537 	  1.847699
13.416029 	 155607 	  1.845467
13.422036 	 155676 	  1.843237
13.428044 	 155746 	  1.841010
13.434051 	 155816 	  1.838786
13.440058 	 155885 	  1.836564
13.446065 	 155955 	  1.834345
13.452072 	 156025 	  1.832129
13.458079 	 156094 	  1.829915
13.464086 	 156164 	  1.827704
13.470093 	 156234 	  1.825496
13.476101 	 156303 	  1.823290
13.482108 	 156373 	  1.821088
13.488115 	 156443 	  1.818887
13.494122 	 156512 	  1.816690
13.500129 	 156582 	  1.814495
13.506136 	 156652 	  1.812303
13.512143 	 156721 	  1.810113
13.518150 	 156791 	  1.807926
13.524158 	 156861 	  1.805742
13.530165 	 156930 	  1.803560
13.536172 	 157000 	  1.801381
13.542179 	 157070 	  1.799204
13.548186 	 157139 	  1.797031
13.554193 	 157209 	  1.794859
13.560200 	 157279 	  1.792691
13.566208 	 157348 	  1.790525
13.572215 	 157418 	  1.788362
13.578222 	 157488 	  1.786201
13.584229 	 157557 	  1.784043
13.590236 	 157627 	  1.781887
13.596243 	 157697 	  1.779734
13.602250 	 157766 	  1.777584
13.608257 	 157836 	  1.775436
13.614265 	 157906 	  1.773291
13.620272 	 157975 	  1.771148
13.626279 	 158045 	  1.769008
13.632286 	 158115 	  1.766870
13.638293 	 158184 	  1.764735
13.644300 	 158254 	  1.762603
13.650307 	 158324 	  1.760473
13.656314 	 158393 	  1.758346
13.662322 	 158463 	  1.756221
13.668329 	 158533 	  1.754099
13.674336 	 158603 	  1.751979
13.680343 	 158672 	  1.749862
13.686350 	 158742 	  1.747747
13.692357 	 158812 	  1.745635
13.698364 	 158881 	  1.743526
13.704371 	 158951 	  1.741418
13.710379 	 159021 	  1.739314
13.716386 	 159090 	  1.737212
13.722393 	 159160 	  1.735112
13.728400 	 159230 	  1.733015
13.734407 	 159299 	  1.730921
13.740414 	 159369 	  1.728829
13.746421 	 159439 	  1.726739
13.752428 	 159508 	  1.724652
13.758436 	 159578 	  1.722567
13.764443 	 159648 	  1.720485
13.770450 	 159717 	  1.718406
13.776457 	 159787 	  1.716328
13.782464 	 159857 	  1.714254
13.788471 	 159926 	  1.712181
13.794478 	 159996 	  1.710111
13.800485 	 160066 	  1.708044
13.806493 	 160135 	  1.705979
13.812500 	 160205 	  1.703917
13.818507 	 160275 	  1.701857
13.824514 	 160344 	  1.699799
13.830521 	 160414 	  1.697744
13.836528 	 160484 	  1.695691
13.842535 	 160553 	  1.693641
13.848542 	 160623 	  1.691593
13.854550 	 160693 	  1.689548
13.860557 	 160762 	  1.687505
13.866564 	 160832 	  1.685464
13.872571 	 160902 	  1.683426
13.878578 	 160971 	  1.681390
13.884585 	 161041 	  1.679356
13.890592 	 161111 	  1.677325
13.896599 	 161180 	  1.675297
13.902607 	 161250 	  1.673271
13.908614 	 161320 	  1.671247
13.914621 	 161389 	  1.669225
13.920628 	 161459 	  1.667206
13.926635 	 161529 	  1.665189
13.932642 	 161598 	  1.663175
13.938649 	 161668 	  1.661163
13.944656 	 161738 	  1.659153
13.950664 	 161808 	  1.657146
13.956671 	 161877 	  1.655141
13.962678 	 161947 	  1.653139
13.968685 	 162017 	  1.651138
13.974692 	 162086 	  1.649140
13.980699 	 162156 	  1.647145
13.986706 	 162226 	  1.645152
13.992713 	 162295 	  1.643161
13.998721 	 162365 	  1.641172
14.004728 	 162435 	  1.639186
14.010735 	 162504 	  1.637202
14.016742 	 162574 	  1.635221
14.022749 	 162644 	  1.633241
14.028756 	 162713 	  1.631264
14.034763 	 162783 	  1.629290
14.040770 	 162853 	  1.627317
14.046778 	 162922 	  1.625347
14.052785 	 162992 	  1.623380
14.058792 	 163062 	  1.621414
14.064799 	 163131 	  1.619451
14.070806 	 163201 	  1.617490
14.076813 	 163271 	  1.615531
14.082820 	 163340 	  1.613575
14.088827 	 163410 	  1.611621
14.094835 	 163480 	  1.609669
14.100842 	 163549 	  1.607720
14.106849 	 163619 	  1.605773
14.112856 	 163689 	  1.603828
14.118863 	 163758 	  1.601885
14.124870 	 163828 	  1.599944
14.130877 	 163898 	  1.598006
14.136884 	 163967 	  1.596070
14.142892 	 164037 	  1.594136
14.148899 	 164107 	  1.592205
14.154906 	 164176 	  1.590276
14.160913 	 164246 	  1.588349
14.166920 	 164316 	  1.586424
14.172927 	 164385 	  1.584501
14.178934 	 164455 	  1.582581
14.184941 	 164525 	  1.580663
14.190949 	 164594 	  1.578747
14.196956 	 164664 	  1.576833
14.202963 	 164734 	  1.574922
14.208970 	 164804 	  1.573012
14.214977 	 164873 	  1.571105
14.220984 	 164943 	  1.569201
14.226991 	 165013 	  1.567298
14.232998 	 165082 	  1.565397
14.239006 	 165152 	  1.563499
14.245013 	 165222 	  1.561603
14.251020 	 165291 	  1.559709
14.257027 	 165361 	  1.557817
14.263034 	 165431 	  1.555928
14.269041 	 165500 	  1.554040
14.275048 	 165570 	  1.552155
14.281055 	 165640 	  1.550272
14.287063 	 165709 	  1.548391
14.293070 	 165779 	  1.546512
14.299077 	 165849 	  1.544636
14.305084 	 165918 	  1.542761
14.311091 	 165988 	  1.540889
14.317098 	 166058 	  1.539019
14.323105 	 166127 	  1.537151
14.329112 	 166197 	  1.535285
14.335120 	 166267 	  1.533421
14.341127 	 166336 	  1.531559
14.347134 	 166406 	  1.529700
14.353141 	 166476 	  1.527842
14.359148 	 166545 	  1.525987
14.365155 	 166615 	  1.524134
14.371162 	 166685 	  1.522283
14.377169 	 166754 	  1.520434
14.383177 	 166824 	  1.518587
14.389184 	 166894 	  1.516743
14.395191 	 166963 	  1.514900
14.401198 	 167033 	  1.513060
14.407205 	 167103 	  1.511221
14.413212 	 167172 	  1.509385
14.419219 	 167242 	  1.507551
14.425226 	 167312 	  1.505719
14.431234 	 167381 	  1.503889
14.437241 	 167451 	  1.502061
14.443248 	 167521 	  1.500235
14.449255 	 167590 	  1.498411
14.455262 	 167660 	  1.496589
14.461269 	 167730 	  1.494770
14.467276 	 167800 	  1.492952
14.473283 	 167869 	  1.491136
14.479291 	 167939 	  1.489323
14.485298 	 168009 	  1.487511
14.491305 	 168078 	  1.485702
14.497312 	 168148 	  1.483895
14.503319 	 168218 	  1.482089
14.509326 	 168287 	  1.480286
14.515333 	 168357 	  1.478485
14.521340 	 168427 	  1.476686
14.527348 	 168496 	  1.474889
14.533355 	 168566 	  1.473094
14.539362 	 168636 	  1.471300
14.545369 	 168705 	  1.469509
14.551376 	 168775 	  1.467720
14.557383 	 168845 	  1.465933
14.563390 	 168914 	  1.464148
14.569398 	 168984 	  1.462365
14.575405 	 169054 	  1.460584
14.581412 	 169123 	  1.458805
14.587419 	 169193 	  1.457028
14.593426 	 169263 	  1.455253
14.599433 	 169332 	  1.453480
14.605440 	 169402 	  1.451709
14.611447 	 169472 	  1.449940
14.617455 	 169541 	  1.448173
14.623462 	 169611 	  1.446408
14.629469 	 169681 	  1.444645
14.635476 	 169750 	  1.442884
14.641483 	 169820 	  1.441125
14.647490 	 169890 	  1.439368
14.653497 	 169959 	  1.437613
14.659504 	 170029 	  1.435860
14.665512 	 170099 	  1.434109
14.671519 	 170168 	  1.432359
14.677526 	 170238 	  1.430612
14.683533 	 170308 	  1.428867
14.689540 	 170377 	  1.427123
14.695547 	 170447 	  1.425382
14.701554 	 170517 	  1.423642
14.707561 	 170586 	  1.421905
14.713569 	 170656 	  1.420169
14.719576 	 170726 	  1.418435
14.725583 	 170795 	  1.416704
14.731590 	 170865 	  1.414974
14.737597 	 170935 	  1.413246
14.743604 	 171005 	  1.411520
14.749611 	 171074 	  1.409796
14.755618 	 171144 	  1.408074
14.761626 	 171214 	  1.406354
14.767633 	 171283 	  1.404635
14.773640 	 171353 	  1.402919
14.779647 	 171423 	  1.401204
14.785654 	 171492 	  1.399492
14.791661 	 171562 	  1.397781
14.797668 	 171632 	  1.396072
14.803675 	 171701 	  1.394365
14.809683 	 171771 	  1.392660
14.815690 	 171841 	  1.390957
14.821697 	 171910 	  1.389256
14.827704 	 171980 	  1.387557
14.833711 	 172050 	  1.385859
14.839718 	 172119 	  1.384164
14.845725 	 172189 	  1.382470
14.851732 	 172259 	  1.380778
14.857740 	 172328 	  1.379088
14.863747 	 172398 	  1.377400
14.869754 	 172468 	  1.375714
14.875761 	 172537 	  1.374030
14.881768 	 172607 	  1.372347
14.887775 	 172677 	  1.370667
14.893782 	 172746 	  1.368988
14.899789 	 172816 	  1.367311
14.905797 	 172886 	  1.365636
14.911804 	 172955 	  1.363963
14.917811 	 173025 	  1.362291
14.923818 	 173095 	  1.360622
14.929825 	 173164 	  1.358954
14.935832 	 173234 	  1.357288
14.941839 	 173304 	  1.355624
14.947846 	 173373 	  1.353962
14.953854 	 173443 	  1.352301
14.959861 	 173513 	  1.350643
14.965868 	 173582 	  1.348986
14.971875 	 173652 	  1.347331
14.977882 	 173722 	  1.345678
14.983889 	 173791 	  1.344027
14.989896 	 173861 	  1.342377
14.995903 	 173931 	  1.340729
15.001911 	 174001 	  1.339084
15.007918 	 174070 	  1.337440
15.013925 	 174140 	  1.335797
15.019932 	 174210 	  1.334157
15.025939 	 174279 	  1.332518
15.031946 	 174349 	  1.330881
15.037953 	 174419 	  1.329246
15.043960 	 174488 	  1.327613
15.049968 	 174558 	  1.325981
15.055975 	 174628 	  1.324351
15.061982 	 174697 	  1.322723
15.067989 	 174767 	  1.321097
15.073996 	 174837 	  1.319473
15.080003 	 174906 	  1.317850
15.086010 	 174976 	  1.316229
15.092017 	 175046 	  1.314610
15.098025 	 175115 	  1.312993
15.104032 	 175185 	  1.311377
15.110039 	 175255 	  1.309763
15.116046 	 175324 	  1.308151
15.122053 	 175394 	  1.306541
15.128060 	 175464 	  1.304932
15.134067 	 175533 	  1.303325
15.140074 	 175603 	  1.301720
15.146082 	 175673 	  1.300117
15.152089 	 175742 	  1.298515
15.158096 	 175812 	  1.296916
15.164103 	 175882 	  1.295317
15.170110 	 175951 	  1.293721
15.176117 	 176021 	  1.292126
15.182124 	 176091 	  1.290533
15.188131 	 176160 	  1.288942
15.194139 	 176230 	  1.287353
15.200146 	 176300 	  1.285765
15.206153 	 176369 	  1.284179
15.212160 	 176439 	  1.282594
15.218167 	 176509 	  1.281012
15.224174 	 176578 	  1.279431
15.230181 	 176648 	  1.277851
15.236188 	 176718 	  1.276274
15.242196 	 176787 	  1.274698
15.248203 	 176857 	  1.273124
15.254210 	 176927 	  1.271552
15.260217 	 176996 	  1.269981
15.266224 	 177066 	  1.268412
15.272231 	 177136 	  1.266844
15.278238 	 177206 	  1.265279
15.284245 	 177275 	  1.263715
15.290253 	 177345 	  1.262152
15.296260 	 177415 	  1.260592
15.302267 	 177484 	  1.259033
15.308274 	 177554 	  1.257475
15.314281 	 177624 	  1.255920
15.320288 	 177693 	  1.254366
15.326295 	 177763 	  1.252814
15.332302 	 177833 	  1.251263
15.338310 	 177902 	  1.249714
15.344317 	 177972 	  1.248167
15.350324 	 178042 	  1.246621
15.356331 	 178111 	  1.245077
15.362338 	 178181 	  1.243535
15.368345 	 178251 	  1.241994
15.374352 	 178320 	  1.240455
15.380359 	 178390 	  1.238918
15.386367 	 178460 	  1.237382
15.392374 	 178529 	  1.235848
15.398381 	 178599 	  1.234315
15.404388 	 178669 	  1.232784
15.410395 	 178738 	  1.231255
15.416402 	 178808 	  1.229728
15.422409 	 178878 	  1.228202
15.428416 	 178947 	  1.226677
15.434424 	 179017 	  1.225155
15.440431 	 179087 	  1.223634
15.446438 	 179156 	  1.222114
15.452445 	 179226 	  1.220596
15.458452 	 179296 	  1.219080
15.464459 	 179365 	  1.217565
15.470466 	 179435 	  1.216052
15.476473 	 179505 	  1.214541
15.482481 	 179574 	  1.213031
15.488488 	 179644 	  1.211523
15.494495 	 179714 	  1.210016
15.500502 	 179783 	  1.208511
15.506509 	 179853 	  1.207008
15.512516 	 179923 	  1.205506
15.518523 	 179992 	  1.204006
15.524530 	 180062 	  1.202507
15.530538 	 180132 	  1.201010
15.536545 	 180202 	  1.199515
15.542552 	 180271 	  1.198021
15.548559 	 180341 	  1.196529
15.554566 	 180411 	  1.195038
15.560573 	 180480 	  1.193549
15.566580 	 180550 	  1.192061
15.572587 	 180620 	  1.190575
15.578595 	 180689 	  1.189091
15.584602 	 180759 	  1.187608
15.590609 	 180829 	  1.186127
15.596616 	 180898 	  1.184647
15.602623 	 180968 	  1.183169
15.608630 	 181038 	  1.181692
15.614637 	 181107 	  1.180217
15.620645 	 181177 	  1.178743
15.626652 	 181247 	  1.177271
15.632659 	 181316 	  1.175801
15.638666 	 181386 	  1.174332
15.644673 	 181456 	  1.172865
15.650680 	 181525 	  1.171399
15.656687 	 181595 	  1.169935
15.662694 	 181665 	  1.168472
15.668702 	 181734 	  1.167011
15.674709 	 181804 	  1.165551
15.680716 	 181874 	  1.164093
15.686723 	 181943 	  1.162636
15.692730 	 182013 	  1.161181
15.698737 	 182083 	  1.159728
15.704744 	 182152 	  1.158276
15.710751 	 182222 	  1.156825
15.716759 	 182292 	  1.155376
15.722766 	 182361 	  1.153929
15.728773 	 182431 	  1.152483
15.734780 	 182501 	  1.151038
15.740787 	 182570 	  1.149595
15.746794 	 182640 	  1.148154
15.752801 	 182710 	  1.146714
15.758808 	 182779 	  1.145275
15.764816 	 182849 	  1.143839
15.770823 	 182919 	  1.142403
15.776830 	 182988 	  1.140969
15.782837 	 183058 	  1.139537
15.788844 	 183128 	  1.138106
15.794851 	 183197 	  1.136676
15.800858 	 183267 	  1.135248
15.806865 	 183337 	  1.133822
15.812873 	 183407 	  1.132397
15.818880 	 183476 	  1.130973
15.824887 	 183546 	  1.129551
15.830894 	 183616 	  1.128130
15.836901 	 183685 	  1.126711
15.842908 	 183755 	  1.125294
15.848915 	 183825 	  1.123877
15.854922 	 183894 	  1.122463
15.860930 	 183964 	  1.121050
15.866937 	 184034 	  1.119638
15.872944 	 184103 	  1.118227
15.878951 	 184173 	  1.116819
15.884958 	 184243 	  1.115411
15.890965 	 184312 	  1.114005
15.896972 	 184382 	  1.112601
15.902979 	 184452 	  1.111198
15.908987 	 184521 	  1.109796
15.914994 	 184591 	  1.108396
15.921001 	 184661 	  1.106997
15.927008 	 184730 	  1.105600
15.933015 	 184800 	  1.104204
15.939022 	 184870 	  1.102810
15.945029 	 184939 	  1.101417
15.951036 	 185009 	  1.100025
15.957044 	 185079 	  1.098635
15.963051 	 185148 	  1.097246
15.969058 	 185218 	  1.095859
15.975065 	 185288 	  1.094473
15.981072 	 185357 	  1.093089
15.987079 	 185427 	  1.091706
15.993086 	 185497 	  1.090325
15.999093 	 185566 	  1.088944
16.005101 	 185636 	  1.087566
16.011108 	 185706 	  1.086188
16.017115 	 185775 	  1.084813
16.023122 	 185845 	  1.083438
16.029129 	 185915 	  1.082065
16.035136 	 185984 	  1.080693
16.041143 	 186054 	  1.079323
16.047150 	 186124 	  1.077954
16.053158 	 186193 	  1.076587
16.059165 	 186263 	  1.075221
16.065172 	 186333 	  1.073856
16.071179 	 186403 	  1.072493
16.077186 	 186472 	  1.071131
16.083193 	 186542 	  1.069771
16.089200 	 186612 	  1.068411
16.095207 	 186681 	  1.067054
16.101215 	 186751 	  1.065697
16.107222 	 186821 	  1.064342
16.113229 	 186890 	  1.062989
16.119236 	 186960 	  1.061637
16.125243 	 187030 	  1.060286
16.131250 	 187099 	  1.058937
16.137257 	 187169 	  1.057588
16.143264 	 187239 	  1.056242
16.149272 	 187308 	  1.054896
16.155279 	 187378 	  1.053553
16.161286 	 187448 	  1.052210
16.167293 	 187517 	  1.050869
16.173300 	 187587 	  1.049529
16.179307 	 187657 	  1.048190
16.185314 	 187726 	  1.046853
16.191321 	 187796 	  1.045517
16.197329 	 187866 	  1.044183
16.203336 	 187935 	  1.042850
16.209343 	 188005 	  1.041518
16.215350 	 188075 	  1.040188
16.221357 	 188144 	  1.038859
16.227364 	 188214 	  1.037531
16.233371 	 188284 	  1.036205
16.239378 	 188353 	  1.034880
16.245386 	 188423 	  1.033556
16.251393 	 188493 	  1.032234
16.257400 	 188562 	  1.030913
16.263407 	 188632 	  1.029593
16.269414 	 188702 	  1.028275
16.275421 	 188771 	  1.026958
16.281428 	 188841 	  1.025642
16.287435 	 188911 	  1.024328
16.293443 	 188980 	  1.023015
16.299450 	 189050 	  1.021703
16.305457 	 189120 	  1.020393
16.311464 	 189189 	  1.019084
16.317471 	 189259 	  1.017776
16.323478 	 189329 	  1.016469
16.329485 	 189398 	  1.015164
16.335492 	 189468 	  1.013860
16.341500 	 189538 	  1.012558
16.347507 	 189608 	  1.011257
16.353514 	 189677 	  1.009957
16.359521 	 189747 	  1.008658
16.365528 	 189817 	  1.007361
16.371535 	 189886 	  1.006065
16.377542 	 189956 	  1.004770
16.383549 	 190026 	  1.003477
16.389557 	 190095 	  1.002185
16.395564 	 190165 	  1.000894
16.401571 	 190235 	  0.999604
16.407578 	 190304 	  0.998316
16.413585 	 190374 	  0.997029
16.419592 	 190444 	  0.995744
16.425599 	 190513 	  0.994459
16.431606 	 190583 	  0.993176
16.437614 	 190653 	  0.991894
16.443621 	 190722 	  0.990614
16.449628 	 190792 	  0.989335
16.455635 	 190862 	  0.988057
16.461642 	 190931 	  0.986780
16.467649 	 191001 	  0.985504
16.473656 	 191071 	  0.984230
16.479663 	 191140 	  0.982957
16.485671 	 191210 	  0.981686
16.491678 	 191280 	  0.980415
16.497685 	 191349 	  0.979146
16.503692 	 191419 	  0.977878
16.509699 	 191489 	  0.976612
16.515706 	 191558 	  0.975346
16.521713 	 191628 	  0.974082
16.527720 	 191698 	  0.972820
16.533728 	 191767 	  0.971558
16.539735 	 191837 	  0.970298
16.545742 	 191907 	  0.969039
16.551749 	 191976 	  0.967781
16.557756 	 192046 	  0.966524
16.563763 	 192116 	  0.965269
16.569770 	 192185 	  0.964015
16.575777 	 192255 	  0.962762
16.581785 	 192325 	  0.961510
16.587792 	 192394 	  0.960260
16.593799 	 192464 	  0.959011
16.599806 	 192534 	  0.957763
16.605813 	 192604 	  0.956516
16.611820 	 192673 	  0.955271
16.617827 	 192743 	  0.954026
16.623834 	 192813 	  0.952783
16.629842 	 192882 	  0.951542
16.635849 	 192952 	  0.950301
16.641856 	 193022 	  0.949062
16.647863 	 193091 	  0.947824
16.653870 	 193161 	  0.946587
16.659877 	 193231 	  0.945351
16.665884 	 193300 	  0.944117
16.671892 	 193370 	  0.942883
16.677899 	 193440 	  0.941651
16.683906 	 193509 	  0.940421
16.689913 	 193579 	  0.939191
16.695920 	 193649 	  0.937963
16.701927 	 193718 	  0.936735
16.707934 	 193788 	  0.935509
16.713941 	 193858 	  0.934285
16.719949 	 193927 	  0.933061
16.725956 	 193997 	  0.931839
16.731963 	 194067 	  0.930617
16.737970 	 194136 	  0.929397
16.743977 	 194206 	  0.928178
16.749984 	 194276 	  0.926961
16.755991 	 194345 	  0.925744
16.761998 	 194415 	  0.924529
16.768006 	 194485 	  0.923315
16.774013 	 194554 	  0.922102
16.780020 	 194624 	  0.920890
16.786027 	 194694 	  0.919680
16.792034 	 194763 	  0.918471
16.798041 	 194833 	  0.917262
16.804048 	 194903 	  0.916055
16.810055 	 194972 	  0.914850
16.816063 	 195042 	  0.913645
16.822070 	 195112 	  0.912442
16.828077 	 195181 	  0.911239
16.834084 	 195251 	  0.910038
16.840091 	 195321 	  0.908838
16.846098 	 195390 	  0.907639
16.852105 	 195460 	  0.906442
16.858112 	 195530 	  0.905245
16.864120 	 195600 	  0.904050
16.870127 	 195669 	  0.902856
16.876134 	 195739 	  0.901663
16.882141 	 195809 	  0.900471
16.888148 	 195878 	  0.899280
16.894155 	 195948 	  0.898091
16.900162 	 196018 	  0.896903
16.906169 	 196087 	  0.895715
16.912177 	 196157 	  0.894529
16.918184 	 196227 	  0.893344
16.924191 	 196296 	  0.892161
16.930198 	 196366 	  0.890978
16.936205 	 196436 	  0.889796
16.942212 	 196505 	  0.888616
16.948219 	 196575 	  0.887437
16.954226 	 196645 	  0.886259
16.960234 	 196714 	  0.885082
16.966241 	 196784 	  0.883906
16.972248 	 196854 	  0.882731
16.978255 	 196923 	  0.881558
16.984262 	 196993 	  0.880385
16.990269 	 197063 	  0.879214
16.996276 	 197132 	  0.878044
17.002283 	 197202 	  0.876875
17.008291 	 197272 	  0.875707
17.014298 	 197341 	  0.874540
17.020305 	 197411 	  0.873375
17.026312 	 197481 	  0.872210
17.032319 	 197550 	  0.871047
17.038326 	 197620 	  0.869884
17.044333 	 197690 	  0.868723
17.050340 	 197759 	  0.867563
17.056348 	 197829 	  0.866404
17.062355 	 197899 	  0.865246
17.068362 	 197968 	  0.864089
17.074369 	 198038 	  0.862934
17.080376 	 198108 	  0.861779
17.086383 	 198177 	  0.860626
17.092390 	 198247 	  0.859473
17.098397 	 198317 	  0.858322
17.104405 	 198386 	  0.857172
17.110412 	 198456 	  0.856023
17.116419 	 198526 	  0.854875
17.122426 	 198595 	  0.853728
17.128433 	 198665 	  0.852583
17.134440 	 198735 	  0.851438
17.140447 	 198805 	  0.850294
17.146454 	 198874 	  0.849152
17.152462 	 198944 	  0.848010
17.158469 	 199014 	  0.846870
17.164476 	 199083 	  0.845731
17.170483 	 199153 	  0.844593
17.176490 	 199223 	  0.843456
17.182497 	 199292 	  0.842320
17.188504 	 199362 	  0.841185
17.194511 	 199432 	  0.840051
17.200519 	 199501 	  0.838918
17.206526 	 199571 	  0.837787
17.212533 	 199641 	  0.836656
17.218540 	 199710 	  0.835527
17.224547 	 199780 	  0.834398
17.230554 	 199850 	  0.833271
17.236561 	 199919 	  0.832144
17.242568 	 199989 	  0.831019
17.248576 	 200059 	  0.829895
17.254583 	 200128 	  0.828772
17.260590 	 200198 	  0.827650
17.266597 	 200268 	  0.826529
17.272604 	 200337 	  0.825409
17.278611 	 200407 	  0.824290
17.284618 	 200477 	  0.823172
17.290625 	 200546 	  0.822055
17.296633 	 200616 	  0.820940
17.302640 	 200686 	  0.819825
17.308647 	 200755 	  0.818711
17.314654 	 200825 	  0.817599
17.320661 	 200895 	  0.816487
17.326668 	 200964 	  0.815377
17.332675 	 201034 	  0.814268
17.338682 	 201104 	  0.813159
17.344690 	 201173 	  0.812052
17.350697 	 201243 	  0.810946
17.356704 	 201313 	  0.809840
17.362711 	 201382 	  0.808736
17.368718 	 201452 	  0.807633
17.374725 	 201522 	  0.806531
17.380732 	 201591 	  0.805430
17.386739 	 201661 	  0.804330
17.392747 	 201731 	  0.803231
17.398754 	 201801 	  0.802133
17.404761 	 201870 	  0.801036
17.410768 	 201940 	  0.799940
17.416775 	 202010 	  0.798845
17.422782 	 202079 	  0.797751
17.428789 	 202149 	  0.796658
17.434796 	 202219 	  0.795566
17.440804 	 202288 	  0.794475
17.446811 	 202358 	  0.793385
17.452818 	 202428 	  0.792297
17.458825 	 202497 	  0.791209
17.464832 	 202567 	  0.790122
17.470839 	 202637 	  0.789036
17.476846 	 202706 	  0.787951
17.482853 	 202776 	  0.786868
17.488861 	 202846 	  0.785785
17.494868 	 202915 	  0.784703
17.500875 	 202985 	  0.783623
17.506882 	 203055 	  0.782543
17.512889 	 203124 	  0.781464
17.518896 	 203194 	  0.780386
17.524903 	 203264 	  0.779310
17.530910 	 203333 	  0.778234
17.536918 	 203403 	  0.777159
17.542925 	 203473 	  0.776086
17.548932 	 203542 	  0.775013
17.554939 	 203612 	  0.773941
17.560946 	 203682 	  0.772870
17.566953 	 203751 	  0.771801
17.572960 	 203821 	  0.770732
17.578967 	 203891 	  0.769664
17.584975 	 203960 	  0.768598
17.590982 	 204030 	  0.767532
17.596989 	 204100 	  0.766467
17.602996 	 204169 	  0.765403
17.609003 	 204239 	  0.764340
17.615010 	 204309 	  0.763279
17.621017 	 204378 	  0.762218
17.627024 	 204448 	  0.761158
17.633032 	 204518 	  0.760099
17.639039 	 204587 	  0.759041
17.645046 	 204657 	  0.757984
17.651053 	 204727 	  0.756928
17.657060 	 204796 	  0.755873
17.663067 	 204866 	  0.754819
17.669074 	 204936 	  0.753766
17.675082 	 205006 	  0.752714
17.681089 	 205075 	  0.751663
17.687096 	 205145 	  0.750613
17.693103 	 205215 	  0.749564
17.699110 	 205284 	  0.748515
17.705117 	 205354 	  0.747468
17.711124 	 205424 	  0.746422
17.717131 	 205493 	  0.745376
17.723139 	 205563 	  0.744332
17.729146 	 205633 	  0.743289
17.735153 	 205702 	  0.742246
17.741160 	 205772 	  0.741205
17.747167 	 205842 	  0.740164
17.753174 	 205911 	  0.739125
17.759181 	 205981 	  0.738086
17.765188 	 206051 	  0.737048
17.771196 	 206120 	  0.736011
17.777203 	 206190 	  0.734976
17.783210 	 206260 	  0.733941
17.789217 	 206329 	  0.732907
17.795224 	 206399 	  0.731874
17.801231 	 206469 	  0.730842
17.807238 	 206538 	  0.729811
17.813245 	 206608 	  0.728781
17.819253 	 206678 	  0.727752
17.825260 	 206747 	  0.726723
17.831267 	 206817 	  0.725696
17.837274 	 206887 	  0.724670
17.843281 	 206956 	  0.723644
17.849288 	 207026 	  0.722620
17.855295 	 207096 	  0.721596
17.861302 	 207165 	  0.720573
17.867310 	 207235 	  0.719552
17.873317 	 207305 	  0.718531
17.879324 	 207374 	  0.717511
17.885331 	 207444 	  0.716492
17.891338 	 207514 	  0.715474
17.897345 	 207583 	  0.714457
17.903352 	 207653 	  0.713441
17.909359 	 207723 	  0.712425
17.915367 	 207792 	  0.711411
17.921374 	 207862 	  0.710398
17.927381 	 207932 	  0.709385
17.933388 	 208002 	  0.708374
17.939395 	 208071 	  0.707363
17.945402 	 208141 	  0.706353
17.951409 	 208211 	  0.705344
17.957416 	 208280 	  0.704336
17.963424 	 208350 	  0.703329
17.969431 	 208420 	  0.702323
17.975438 	 208489 	  0.701318
17.981445 	 208559 	  0.700314
17.987452 	 208629 	  0.699310
17.993459 	 208698 	  0.698308
17.999466 	 208768 	  0.697306
18.005473 	 208838 	  0.696306
18.011481 	 208907 	  0.695306
18.017488 	 208977 	  0.694307
18.023495 	 209047 	  0.693309
18.029502 	 209116 	  0.692312
18.035509 	 209186 	  0.691316
18.041516 	 209256 	  0.690321
18.047523 	 209325 	  0.689326
18.053530 	 209395 	  0.688333
18.059538 	 209465 	  0.687340
18.065545 	 209534 	  0.686348
18.071552 	 209604 	  0.685358
18.077559 	 209674 	  0.684368
18.083566 	 209743 	  0.683379
18.089573 	 209813 	  0.682390
18.095580 	 209883 	  0.681403
18.101587 	 209952 	  0.680417
18.107595 	 210022 	  0.679431
18.113602 	 210092 	  0.678447
18.119609 	 210161 	  0.677463
18.125616 	 210231 	  0.676480
18.131623 	 210301 	  0.675498
18.137630 	 210370 	  0.674517
18.143637 	 210440 	  0.673537
18.149644 	 210510 	  0.672557
18.155652 	 210579 	  0.671579
18.161659 	 210649 	  0.670601
18.167666 	 210719 	  0.669624
18.173673 	 210788 	  0.668648
18.179680 	 210858 	  0.667673
18.185687 	 210928 	  0.666699
18.191694 	 210997 	  0.665726
18.197701 	 211067 	  0.664754
18.203709 	 211137 	  0.663782
18.209716 	 211207 	  0.662811
18.215723 	 211276 	  0.661842
18.221730 	 211346 	  0.660873
18.227737 	 211416 	  0.659904
18.233744 	 211485 	  0.658937
18.239751 	 211555 	  0.657971
18.245758 	 211625 	  0.657005
18.251766 	 211694 	  0.656041
18.257773 	 211764 	  0.655077
18.263780 	 211834 	  0.654114
18.269787 	 211903 	  0.653152
18.275794 	 211973 	  0.652191
18.281801 	 212043 	  0.651230
18.287808 	 212112 	  0.650271
18.293815 	 212182 	  0.649312
18.299823 	 212252 	  0.648354
18.305830 	 212321 	  0.647397
18.311837 	 212391 	  0.646441
18.317844 	 212461 	  0.645485
18.323851 	 212530 	  0.644531
18.329858 	 212600 	  0.643577
18.335865 	 212670 	  0.642625
18.341872 	 212739 	  0.641673
18.347880 	 212809 	  0.640721
18.353887 	 212879 	  0.639771
18.359894 	 212948 	  0.638822
18.365901 	 213018 	  0.637873
18.371908 	 213088 	  0.636925
18.377915 	 213157 	  0.635978
18.383922 	 213227 	  0.635032
18.389929 	 213297 	  0.634087
18.395937 	 213366 	  0.633143
18.401944 	 213436 	  0.632199
18.407951 	 213506 	  0.631256
18.413958 	 213575 	  0.630314
18.419965 	 213645 	  0.629373
18.425972 	 213715 	  0.628433
18.431979 	 213784 	  0.627493
18.437986 	 213854 	  0.626555
18.443994 	 213924 	  0.625617
18.450001 	 213993 	  0.624680
18.456008 	 214063 	  0.623743
18.462015 	 214133 	  0.622808
18.468022 	 214203 	  0.621874
18.474029 	 214272 	  0.620940
18.480036 	 214342 	  0.620007
18.486043 	 214412 	  0.619075
18.492051 	 214481 	  0.618143
18.498058 	 214551 	  0.617213
18.504065 	 214621 	  0.616283
18.510072 	 214690 	  0.615354
18.516079 	 214760 	  0.614426
18.522086 	 214830 	  0.613499
18.528093 	 214899 	  0.612573
18.534100 	 214969 	  0.611647
18.540108 	 215039 	  0.610722
18.546115 	 215108 	  0.609798
18.552122 	 215178 	  0.608875
18.558129 	 215248 	  0.607952
18.564136 	 215317 	  0.607031
18.570143 	 215387 	  0.606110
18.576150 	 215457 	  0.605190
18.582157 	 215526 	  0.604271
18.588165 	 215596 	  0.603352
18.594172 	 215666 	  0.602435
18.600179 	 215735 	  0.601518
18.606186 	 215805 	  0.600602
18.612193 	 215875 	  0.599686
18.618200 	 215944 	  0.598772
18.624207 	 216014 	  0.597858
18.630214 	 216084 	  0.596945
18.636222 	 216153 	  0.596033
18.642229 	 216223 	  0.595122
18.648236 	 216293 	  0.594211
18.654243 	 216362 	  0.593302
18.660250 	 216432 	  0.592393
18.666257 	 216502 	  0.591485
18.672264 	 216571 	  0.590577
18.678271 	 216641 	  0.589671
18.684279 	 216711 	  0.588765
18.690286 	 216780 	  0.587860
18.696293 	 216850 	  0.586956
18.702300 	 216920 	  0.586052
18.708307 	 216989 	  0.585149
18.714314 	 217059 	  0.584247
18.720321 	 217129 	  0.583346
18.726329 	 217198 	  0.582446
18.732336 	 217268 	  0.581546
18.738343 	 217338 	  0.580647
18.744350 	 217408 	  0.579749
18.750357 	 217477 	  0.578852
18.756364 	 217547 	  0.577956
18.762371 	 217617 	  0.577060
18.768378 	 217686 	  0.576165
18.774386 	 217756 	  0.575271
18.780393 	 217826 	  0.574377
18.786400 	 217895 	  0.573485
18.792407 	 217965 	  0.572593
18.798414 	 218035 	  0.571701
18.804421 	 218104 	  0.570811
18.810428 	 218174 	  0.569921
18.816435 	 218244 	  0.569033
18.822443 	 218313 	  0.568144
18.828450 	 218383 	  0.567257
18.834457 	 218453 	  0.566370
18.840464 	 218522 	  0.565485
18.846471 	 218592 	  0.564600
18.852478 	 218662 	  0.563715
18.858485 	 218731 	  0.562832
18.864492 	 218801 	  0.561949
18.870500 	 218871 	  0.561067
18.876507 	 218940 	  0.560185
18.882514 	 219010 	  0.559305
18.888521 	 219080 	  0.558425
18.894528 	 219149 	  0.557546
18.900535 	 219219 	  0.556668
18.906542 	 219289 	  0.555790
18.912549 	 219358 	  0.554913
18.918557 	 219428 	  0.554037
18.924564 	 219498 	  0.553162
18.930571 	 219567 	  0.552287
18.936578 	 219637 	  0.551413
18.942585 	 219707 	  0.550540
18.948592 	 219776 	  0.549668
18.954599 	 219846 	  0.548796
18.960606 	 219916 	  0.547925
18.966614 	 219985 	  0.547055
18.972621 	 220055 	  0.546186
18.978628 	 220125 	  0.545317
18.984635 	 220194 	  0.544449
18.990642 	 220264 	  0.543582
18.996649 	 220334 	  0.542715
19.002656 	 220404 	  0.541849
19.008663 	 220473 	  0.540984
19.014671 	 220543 	  0.540120
19.020678 	 220613 	  0.539256
19.026685 	 220682 	  0.538394
19.032692 	 220752 	  0.537531
19.038699 	 220822 	  0.536670
19.044706 	 220891 	  0.535809
19.050713 	 220961 	  0.534949
19.056720 	 221031 	  0.534090
19.062728 	 221100 	  0.533232
19.068735 	 221170 	  0.532374
19.074742 	 221240 	  0.531517
19.080749 	 221309 	  0.530660
19.086756 	 221379 	  0.529805
19.092763 	 221449 	  0.528950
19.098770 	 221518 	  0.528096
19.104777 	 221588 	  0.527242
19.110785 	 221658 	  0.526389
19.116792 	 221727 	  0.525537
19.122799 	 221797 	  0.524686
19.128806 	 221867 	  0.523835
19.134813 	 221936 	  0.522986
19.140820 	 222006 	  0.522136
19.146827 	 222076 	  0.521288
19.152834 	 222145 	  0.520440
19.158842 	 222215 	  0.519593
19.164849 	 222285 	  0.518747
19.170856 	 222354 	  0.517901
19.176863 	 222424 	  0.517056
19.182870 	 222494 	  0.516212
19.188877 	 222563 	  0.515368
19.194884 	 222633 	  0.514525
19.200891 	 222703 	  0.513683
19.206899 	 222772 	  0.512842
19.212906 	 222842 	  0.512001
19.218913 	 222912 	  0.511161
19.224920 	 222981 	  0.510322
19.230927 	 223051 	  0.509483
19.236934 	 223121 	  0.508645
19.242941 	 223190 	  0.507808
19.248948 	 223260 	  0.506971
19.254956 	 223330 	  0.506135
19.260963 	 223399 	  0.505300
19.266970 	 223469 	  0.504466
19.272977 	 223539 	  0.503632
19.278984 	 223609 	  0.502799
19.284991 	 223678 	  0.501967
19.290998 	 223748 	  0.501135
19.297005 	 223818 	  0.500304
19.303013 	 223887 	  0.499473
19.309020 	 223957 	  0.498644
19.315027 	 224027 	  0.497815
19.321034 	 224096 	  0.496987
19.327041 	 224166 	  0.496159
19.333048 	 224236 	  0.495332
19.339055 	 224305 	  0.494506
19.345062 	 224375 	  0.493680
19.351070 	 224445 	  0.492855
19.357077 	 224514 	  0.492031
19.363084 	 224584 	  0.491208
19.369091 	 224654 	  0.490385
19.375098 	 224723 	  0.489563
19.381105 	 224793 	  0.488741
19.387112 	 224863 	  0.487921
19.393119 	 224932 	  0.487100
19.399127 	 225002 	  0.486281
19.405134 	 225072 	  0.485462
19.411141 	 225141 	  0.484644
19.417148 	 225211 	  0.483827
19.423155 	 225281 	  0.483010
19.429162 	 225350 	  0.482194
19.435169 	 225420 	  0.481378
19.441176 	 225490 	  0.480564
19.447184 	 225559 	  0.479750
19.453191 	 225629 	  0.478936
19.459198 	 225699 	  0.478123
19.465205 	 225768 	  0.477311
19.471212 	 225838 	  0.476500
19.477219 	 225908 	  0.475689
19.483226 	 225977 	  0.474879
19.489233 	 226047 	  0.474070
19.495241 	 226117 	  0.473261
19.501248 	 226186 	  0.472453
19.507255 	 226256 	  0.471645
19.513262 	 226326 	  0.470839
19.519269 	 226395 	  0.470033
19.525276 	 226465 	  0.469227
19.531283 	 226535 	  0.468422
19.537290 	 226605 	  0.467618
19.543298 	 226674 	  0.466815
19.549305 	 226744 	  0.466012
19.555312 	 226814 	  0.465210
19.561319 	 226883 	  0.464408
19.567326 	 226953 	  0.463607
19.573333 	 227023 	  0.462807
19.579340 	 227092 	  0.462007
19.585347 	 227162 	  0.461208
19.591355 	 227232 	  0.460410
19.597362 	 227301 	  0.459612
19.603369 	 227371 	  0.458816
19.609376 	 227441 	  0.458019
19.615383 	 227510 	  0.457223
19.621390 	 227580 	  0.456428
19.627397 	 227650 	  0.455634
19.633404 	 227719 	  0.454840
19.639412 	 227789 	  0.454047
19.645419 	 227859 	  0.453255
19.651426 	 227928 	  0.452463
19.657433 	 227998 	  0.451672
19.663440 	 228068 	  0.450881
19.669447 	 228137 	  0.450091
19.675454 	 228207 	  0.449302
19.681461 	 228277 	  0.448513
19.687469 	 228346 	  0.447725
19.693476 	 228416 	  0.446938
19.699483 	 228486 	  0.446151
19.705490 	 228555 	  0.445365
19.711497 	 228625 	  0.444579
19.717504 	 228695 	  0.443795
19.723511 	 228764 	  0.443010
19.729518 	 228834 	  0.442227
19.735526 	 228904 	  0.441444
19.741533 	 228973 	  0.440662
19.747540 	 229043 	  0.439880
19.753547 	 229113 	  0.439099
19.759554 	 229182 	  0.438318
19.765561 	 229252 	  0.437539
19.771568 	 229322 	  0.436759
19.777576 	 229391 	  0.435981
19.783583 	 229461 	  0.435203
19.789590 	 229531 	  0.434426
19.795597 	 229601 	  0.433649
19.801604 	 229670 	  0.432873
19.807611 	 229740 	  0.432097
19.813618 	 229810 	  0.431323
19.819625 	 229879 	  0.430548
19.825633 	 229949 	  0.429775
19.831640 	 230019 	  0.429002
19.837647 	 230088 	  0.428230
19.843654 	 230158 	  0.427458
19.849661 	 230228 	  0.426687
19.855668 	 230297 	  0.425916
19.861675 	 230367 	  0.425146
19.867682 	 230437 	  0.424377
19.873690 	 230506 	  0.423608
19.879697 	 230576 	  0.422840
19.885704 	 230646 	  0.422073
19.891711 	 230715 	  0.421306
19.897718 	 230785 	  0.420540
19.903725 	 230855 	  0.419774
19.909732 	 230924 	  0.419009
19.915739 	 230994 	  0.418245
19.921747 	 231064 	  0.417481
19.927754 	 231133 	  0.416718
19.933761 	 231203 	  0.415956
19.939768 	 231273 	  0.415194
19.945775 	 231342 	  0.414432
19.951782 	 231412 	  0.413671
19.957789 	 231482 	  0.412911
19.963796 	 231551 	  0.412152
19.969804 	 231621 	  0.411393
19.975811 	 231691 	  0.410634
19.981818 	 231760 	  0.409877
19.987825 	 231830 	  0.409120
19.993832 	 231900 	  0.408363
19.999839 	 231969 	  0.407607
20.005846 	 232039 	  0.406852
20.011853 	 232109 	  0.406097
20.017861 	 232178 	  0.405343
20.023868 	 232248 	  0.404589
20.029875 	 232318 	  0.403836
20.035882 	 232387 	  0.403084
20.041889 	 232457 	  0.402332
20.047896 	 232527 	  0.401581
20.053903 	 232596 	  0.400830
20.059910 	 232666 	  0.400080
20.065918 	 232736 	  0.399331
20.071925 	 232806 	  0.398582
20.077932 	 232875 	  0.397834
20.083939 	 232945 	  0.397086
20.089946 	 233015 	  0.396339
20.095953 	 233084 	  0.395593
20.101960 	 233154 	  0.394847
20.107967 	 233224 	  0.394102
20.113975 	 233293 	  0.393357
20.119982 	 233363 	  0.392613
20.125989 	 233433 	  0.391869
20.131996 	 233502 	  0.391126
20.138003 	 233572 	  0.390384
20.144010 	 233642 	  0.389642
20.150017 	 233711 	  0.388901
20.156024 	 233781 	  0.388160
20.162032 	 233851 	  0.387420
20.168039 	 233920 	  0.386681
20.174046 	 233990 	  0.385942
20.180053 	 234060 	  0.385204
20.186060 	 234129 	  0.384466
20.192067 	 234199 	  0.383729
20.198074 	 234269 	  0.382992
20.204081 	 234338 	  0.382256
20.210089 	 234408 	  0.381521
20.216096 	 234478 	  0.380786
20.222103 	 234547 	  0.380051
20.228110 	 234617 	  0.379318
20.234117 	 234687 	  0.378585
20.240124 	 234756 	  0.377852
20.246131 	 234826 	  0.377120
20.252138 	 234896 	  0.376389
20.258146 	 234965 	  0.375658
20.264153 	 235035 	  0.374927
20.270160 	 235105 	  0.374198
20.276167 	 235174 	  0.373468
20.282174 	 235244 	  0.372740
20.288181 	 235314 	  0.372012
20.294188 	 235383 	  0.371284
20.300195 	 235453 	  0.370557
20.306203 	 235523 	  0.369831
20.312210 	 235592 	  0.369105
20.318217 	 235662 	  0.368380
20.324224 	 235732 	  0.367655
20.330231 	 235802 	  0.366931
20.336238 	 235871 	  0.366208
20.342245 	 235941 	  0.365485
20.348252 	 236011 	  0.364762
20.354260 	 236080 	  0.364040
20.360267 	 236150 	  0.363319
20.366274 	 236220 	  0.362598
20.372281 	 236289 	  0.361878
20.378288 	 236359 	  0.361159
20.384295 	 236429 	  0.360439
20.390302 	 236498 	  0.359721
20.396309 	 236568 	  0.359003
20.402317 	 236638 	  0.358286
20.408324 	 236707 	  0.357569
20.414331 	 236777 	  0.356852
20.420338 	 236847 	  0.356137
20.426345 	 236916 	  0.355421
20.432352 	 236986 	  0.354707
20.438359 	 237056 	  0.353993
20.444366 	 237125 	  0.353279
20.450374 	 237195 	  0.352566
20.456381 	 237265 	  0.351853
20.462388 	 237334 	  0.351141
20.468395 	 237404 	  0.350430
20.474402 	 237474 	  0.349719
20.480409 	 237543 	  0.349009
20.486416 	 237613 	  0.348299
20.492423 	 237683 	  0.347590
20.498431 	 237752 	  0.346881
20.504438 	 237822 	  0.346173
20.510445 	 237892 	  0.345466
20.516452 	 237961 	  0.344759
20.522459 	 238031 	  0.344052
20.528466 	 238101 	  0.343346
20.534473 	 238170 	  0.342641
20.540480 	 238240 	  0.341936
20.546488 	 238310 	  0.341231
20.552495 	 238379 	  0.340528
20.558502 	 238449 	  0.339824
20.564509 	 238519 	  0.339122
20.570516 	 238588 	  0.338419
20.576523 	 238658 	  0.337718
20.582530 	 238728 	  0.337017
20.588537 	 238797 	  0.336316
20.594545 	 238867 	  0.335616
20.600552 	 238937 	  0.334916
20.606559 	 239007 	  0.334217
20.612566 	 239076 	  0.333519
20.618573 	 239146 	  0.332821
20.624580 	 239216 	  0.332124
20.630587 	 239285 	  0.331427
20.636594 	 239355 	  0.330730
20.642602 	 239425 	  0.330034
20.648609 	 239494 	  0.329339
20.654616 	 239564 	  0.328644
20.660623 	 239634 	  0.327950
20.666630 	 239703 	  0.327256
20.672637 	 239773 	  0.326563
20.678644 	 239843 	  0.325871
20.684651 	 239912 	  0.325178
20.690659 	 239982 	  0.324487
20.696666 	 240052 	  0.323796
20.702673 	 240121 	  0.323105
20.708680 	 240191 	  0.322415
20.714687 	 240261 	  0.321725
20.720694 	 240330 	  0.321036
20.726701 	 240400 	  0.320348
20.732708 	 240470 	  0.319660
20.738716 	 240539 	  0.318972
20.744723 	 240609 	  0.318286
20.750730 	 240679 	  0.317599
20.756737 	 240748 	  0.316913
20.762744 	 240818 	  0.316228
20.768751 	 240888 	  0.315543
20.774758 	 240957 	  0.314859
20.780766 	 241027 	  0.314175
20.786773 	 241097 	  0.313491
20.792780 	 241166 	  0.312809
20.798787 	 241236 	  0.312126
20.804794 	 241306 	  0.311444
20.810801 	 241375 	  0.310763
20.816808 	 241445 	  0.310082
20.822815 	 241515 	  0.309402
20.828823 	 241584 	  0.308722
20.834830 	 241654 	  0.308043
20.840837 	 241724 	  0.307364
20.846844 	 241793 	  0.306686
20.852851 	 241863 	  0.306008
20.858858 	 241933 	  0.305331
20.864865 	 242003 	  0.304654
20.870872 	 242072 	  0.303978
20.876880 	 242142 	  0.303302
20.882887 	 242212 	  0.302627
20.888894 	 242281 	  0.301952
20.894901 	 242351 	  0.301278
20.900908 	 242421 	  0.300605
20.906915 	 242490 	  0.299931
20.912922 	 242560 	  0.299259
20.918929 	 242630 	  0.298587
20.924937 	 242699 	  0.297915
20.930944 	 242769 	  0.297244
20.936951 	 242839 	  0.296573
20.942958 	 242908 	  0.295903
20.948965 	 242978 	  0.295233
20.954972 	 243048 	  0.294564
20.960979 	 243117 	  0.293895
20.966986 	 243187 	  0.293227
20.972994 	 243257 	  0.292559
20.979001 	 243326 	  0.291892
20.985008 	 243396 	  0.291225
20.991015 	 243466 	  0.290559
20.997022 	 243535 	  0.289893
21.003029 	 243605 	  0.289228
21.009036 	 243675 	  0.288563
21.015043 	 243744 	  0.287899
21.021051 	 243814 	  0.287235
21.027058 	 243884 	  0.286572
21.033065 	 243953 	  0.285909
21.039072 	 244023 	  0.285247
21.045079 	 244093 	  0.284585
21.051086 	 244162 	  0.283924
21.057093 	 244232 	  0.283263
21.063100 	 244302 	  0.282603
21.069108 	 244371 	  0.281943
21.075115 	 244441 	  0.281283
21.081122 	 244511 	  0.280624
21.087129 	 244580 	  0.279966
21.093136 	 244650 	  0.279308
21.099143 	 244720 	  0.278651
21.105150 	 244789 	  0.277994
21.111157 	 244859 	  0.277337
21.117165 	 244929 	  0.276681
21.123172 	 244998 	  0.276026
21.129179 	 245068 	  0.275371
21.135186 	 245138 	  0.274716
21.141193 	 245208 	  0.274062
21.147200 	 245277 	  0.273409
21.153207 	 245347 	  0.272755
21.159214 	 245417 	  0.272103
21.165222 	 245486 	  0.271451
21.171229 	 245556 	  0.270799
21.177236 	 245626 	  0.270148
21.183243 	 245695 	  0.269497
21.189250 	 245765 	  0.268847
21.195257 	 245835 	  0.268197
21.201264 	 245904 	  0.267548
21.207271 	 245974 	  0.266899
21.213279 	 246044 	  0.266251
21.219286 	 246113 	  0.265603
21.225293 	 246183 	  0.264955
21.231300 	 246253 	  0.264308
21.237307 	 246322 	  0.263662
21.243314 	 246392 	  0.263016
21.249321 	 246462 	  0.262371
21.255328 	 246531 	  0.261726
21.261336 	 246601 	  0.261081
21.267343 	 246671 	  0.260437
21.273350 	 246740 	  0.259793
21.279357 	 246810 	  0.259150
21.285364 	 246880 	  0.258507
21.291371 	 246949 	  0.257865
21.297378 	 247019 	  0.257223
21.303385 	 247089 	  0.256582
21.309393 	 247158 	  0.255941
21.315400 	 247228 	  0.255301
21.321407 	 247298 	  0.254661
21.327414 	 247367 	  0.254021
21.333421 	 247437 	  0.253382
21.339428 	 247507 	  0.252744
21.345435 	 247576 	  0.252106
21.351442 	 247646 	  0.251468
21.357450 	 247716 	  0.250831
21.363457 	 247785 	  0.250195
21.369464 	 247855 	  0.249558
21.375471 	 247925 	  0.248923
21.381478 	 247994 	  0.248287
21.387485 	 248064 	  0.247652
21.393492 	 248134 	  0.247018
21.399499 	 248204 	  0.246384
21.405507 	 248273 	  0.245751
21.411514 	 248343 	  0.245118
21.417521 	 248413 	  0.244485
21.423528 	 248482 	  0.243853
21.429535 	 248552 	  0.243221
21.435542 	 248622 	  0.242590
21.441549 	 248691 	  0.241959
21.447556 	 248761 	  0.241329
21.453564 	 248831 	  0.240699
21.459571 	 248900 	  0.240070
21.465578 	 248970 	  0.239441
21.471585 	 249040 	  0.238813
21.477592 	 249109 	  0.238185
21.483599 	 249179 	  0.237557
21.489606 	 249249 	  0.236930
21.495613 	 249318 	  0.236303
21.501621 	 249388 	  0.235677
21.507628 	 249458 	  0.235051
21.513635 	 249527 	  0.234426
21.519642 	 249597 	  0.233801
21.525649 	 249667 	  0.233177
21.531656 	 249736 	  0.232553
21.537663 	 249806 	  0.231929
21.543670 	 249876 	  0.231306
21.549678 	 249945 	  0.230683
21.555685 	 250015 	  0.230061
21.561692 	 250085 	  0.229439
21.567699 	 250154 	  0.228818
21.573706 	 250224 	  0.228197
21.579713 	 250294 	  0.227577
21.585720 	 250363 	  0.226957
21.591727 	 250433 	  0.226337
21.597735 	 250503 	  0.225718
21.603742 	 250572 	  0.225099
21.609749 	 250642 	  0.224481
21.615756 	 250712 	  0.223863
21.621763 	 250781 	  0.223246
21.627770 	 250851 	  0.222629
21.633777 	 250921 	  0.222013
21.639784 	 250990 	  0.221397
21.645792 	 251060 	  0.220781
21.651799 	 251130 	  0.220166
21.657806 	 251199 	  0.219551
21.663813 	 251269 	  0.218937
21.669820 	 251339 	  0.218323
21.675827 	 251409 	  0.217710
21.681834 	 251478 	  0.217097
21.687841 	 251548 	  0.216484
21.693849 	 251618 	  0.215872
21.699856 	 251687 	  0.215260
21.705863 	 251757 	  0.214649
21.711870 	 251827 	  0.214038
21.717877 	 251896 	  0.213428
21.723884 	 251966 	  0.212818
21.729891 	 252036 	  0.212208
21.735898 	 252105 	  0.211599
21.741906 	 252175 	  0.210991
21.747913 	 252245 	  0.210382
21.753920 	 252314 	  0.209775
21.759927 	 252384 	  0.209167
21.765934 	 252454 	  0.208560
21.771941 	 252523 	  0.207954
21.777948 	 252593 	  0.207348
21.783955 	 252663 	  0.206742
21.789963 	 252732 	  0.206137
21.795970 	 252802 	  0.205532
21.801977 	 252872 	  0.204928
21.807984 	 252941 	  0.204324
21.813991 	 253011 	  0.203720
21.819998 	 253081 	  0.203117
21.826005 	 253150 	  0.202514
21.832013 	 253220 	  0.201912
21.838020 	 253290 	  0.201310
21.844027 	 253359 	  0.200709
21.850034 	 253429 	  0.200108
21.856041 	 253499 	  0.199507
21.862048 	 253568 	  0.198907
21.868055 	 253638 	  0.198307
21.874062 	 253708 	  0.197708
21.880070 	 253777 	  0.197109
21.886077 	 253847 	  0.196510
21.892084 	 253917 	  0.195912
21.898091 	 253986 	  0.195315
21.904098 	 254056 	  0.194717
21.910105 	 254126 	  0.194120
21.916112 	 254195 	  0.193524
21.922119 	 254265 	  0.192928
21.928127 	 254335 	  0.192332
21.934134 	 254405 	  0.191737
21.940141 	 254474 	  0.191143
21.946148 	 254544 	  0.190548
21.952155 	 254614 	  0.189954
21.958162 	 254683 	  0.189361
21.964169 	 254753 	  0.188768
21.970176 	 254823 	  0.188175
21.976184 	 254892 	  0.187583
21.982191 	 254962 	  0.186991
21.988198 	 255032 	  0.186399
21.994205 	 255101 	  0.185808
22.000212 	 255171 	  0.185218
22.006219 	 255241 	  0.184627
22.012226 	 255310 	  0.184038
22.018233 	 255380 	  0.183448
22.024241 	 255450 	  0.182859
22.030248 	 255519 	  0.182271
22.036255 	 255589 	  0.181682
22.042262 	 255659 	  0.181095
22.048269 	 255728 	  0.180507
22.054276 	 255798 	  0.179920
22.060283 	 255868 	  0.179334
22.066290 	 255937 	  0.178748
22.072298 	 256007 	  0.178162
22.078305 	 256077 	  0.177576
22.084312 	 256146 	  0.176992
22.090319 	 256216 	  0.176407
22.096326 	 256286 	  0.175823
22.102333 	 256355 	  0.175239
22.108340 	 256425 	  0.174656
22.114347 	 256495 	  0.174073
22.120355 	 256564 	  0.173490
22.126362 	 256634 	  0.172908
22.132369 	 256704 	  0.172326
22.138376 	 256773 	  0.171745
22.144383 	 256843 	  0.171164
22.150390 	 256913 	  0.170584
22.156397 	 256982 	  0.170003
22.162404 	 257052 	  0.169424
22.168412 	 257122 	  0.168844
22.174419 	 257191 	  0.168265
22.180426 	 257261 	  0.167687
22.186433 	 257331 	  0.167109
22.192440 	 257401 	  0.166531
22.198447 	 257470 	  0.165954
22.204454 	 257540 	  0.165377
22.210461 	 257610 	  0.164800
22.216469 	 257679 	  0.164224
22.222476 	 257749 	  0.163648
22.228483 	 257819 	  0.163073
22.234490 	 257888 	  0.162498
22.240497 	 257958 	  0.161923
22.246504 	 258028 	  0.161349
22.252511 	 258097 	  0.160775
22.258518 	 258167 	  0.160202
22.264526 	 258237 	  0.159629
22.270533 	 258306 	  0.159056
22.276540 	 258376 	  0.158484
22.282547 	 258446 	  0.157912
22.288554 	 258515 	  0.157340
22.294561 	 258585 	  0.156769
22.300568 	 258655 	  0.156199
22.306575 	 258724 	  0.155628
22.312583 	 258794 	  0.155058
22.318590 	 258864 	  0.154489
22.324597 	 258933 	  0.153920
22.330604 	 259003 	  0.153351
22.336611 	 259073 	  0.152782
22.342618 	 259142 	  0.152214
22.348625 	 259212 	  0.151647
22.354632 	 259282 	  0.151080
22.360640 	 259351 	  0.150513
22.366647 	 259421 	  0.149946
22.372654 	 259491 	  0.149380
22.378661 	 259560 	  0.148814
22.384668 	 259630 	  0.148249
22.390675 	 259700 	  0.147684
22.396682 	 259769 	  0.147120
22.402689 	 259839 	  0.146555
22.408697 	 259909 	  0.145992
22.414704 	 259978 	  0.145428
22.420711 	 260048 	  0.144865
22.426718 	 260118 	  0.144303
22.432725 	 260187 	  0.143740
22.438732 	 260257 	  0.143178
22.444739 	 260327 	  0.142617
22.450746 	 260396 	  0.142056
22.456754 	 260466 	  0.141495
22.462761 	 260536 	  0.140935
22.468768 	 260606 	  0.140375
22.474775 	 260675 	  0.139815
22.480782 	 260745 	  0.139256
22.486789 	 260815 	  0.138697
22.492796 	 260884 	  0.138138
22.498803 	 260954 	  0.137580
22.504811 	 261024 	  0.137022
22.510818 	 261093 	  0.136465
22.516825 	 261163 	  0.135908
22.522832 	 261233 	  0.135351
22.528839 	 261302 	  0.134795
22.534846 	 261372 	  0.134239
22.540853 	 261442 	  0.133684
22.546860 	 261511 	  0.133129
22.552868 	 261581 	  0.132574
22.558875 	 261651 	  0.132019
22.564882 	 261720 	  0.131465
22.570889 	 261790 	  0.130912
22.576896 	 261860 	  0.130358
22.582903 	 261929 	  0.129805
22.588910 	 261999 	  0.129253
22.594917 	 262069 	  0.128701
22.600925 	 262138 	  0.128149
22.606932 	 262208 	  0.127597
22.612939 	 262278 	  0.127046
22.618946 	 262347 	  0.126496
22.624953 	 262417 	  0.125945
22.630960 	 262487 	  0.125395
22.636967 	 262556 	  0.124846
22.642974 	 262626 	  0.124296
22.648982 	 262696 	  0.123747
22.654989 	 262765 	  0.123199
22.660996 	 262835 	  0.122651
22.667003 	 262905 	  0.122103
22.673010 	 262974 	  0.121555
22.679017 	 263044 	  0.121008
22.685024 	 263114 	  0.120462
22.691031 	 263183 	  0.119915
22.697039 	 263253 	  0.119369
22.703046 	 263323 	  0.118824
22.709053 	 263392 	  0.118278
22.715060 	 263462 	  0.117734
22.721067 	 263532 	  0.117189
22.727074 	 263602 	  0.116645
22.733081 	 263671 	  0.116101
22.739088 	 263741 	  0.115558
22.745096 	 263811 	  0.115014
22.751103 	 263880 	  0.114472
22.757110 	 263950 	  0.113929
22.763117 	 264020 	  0.113387
22.769124 	 264089 	  0.112846
22.775131 	 264159 	  0.112304
22.781138 	 264229 	  0.111763
22.787145 	 264298 	  0.111223
22.793153 	 264368 	  0.110682
22.799160 	 264438 	  0.110143
22.805167 	 264507 	  0.109603
22.811174 	 264577 	  0.109064
22.817181 	 264647 	  0.108525
22.823188 	 264716 	  0.107986
22.829195 	 264786 	  0.107448
22.835202 	 264856 	  0.106911
22.841210 	 264925 	  0.106373
22.847217 	 264995 	  0.105836
22.853224 	 265065 	  0.105299
22.859231 	 265134 	  0.104763
22.865238 	 265204 	  0.104227
22.871245 	 265274 	  0.103691
22.877252 	 265343 	  0.103156
22.883260 	 265413 	  0.102621
22.889267 	 265483 	  0.102086
22.895274 	 265552 	  0.101552
22.901281 	 265622 	  0.101018
22.907288 	 265692 	  0.100485
22.913295 	 265761 	  0.099951
22.919302 	 265831 	  0.099419
22.925309 	 265901 	  0.098886
22.931317 	 265970 	  0.098354
22.937324 	 266040 	  0.097822
22.943331 	 266110 	  0.097291
22.949338 	 266179 	  0.096759
22.955345 	 266249 	  0.096229
22.961352 	 266319 	  0.095698
22.967359 	 266388 	  0.095168
22.973366 	 266458 	  0.094638
22.979374 	 266528 	  0.094109
22.985381 	 266597 	  0.093580
22.991388 	 266667 	  0.093051
22.997395 	 266737 	  0.092523
23.003402 	 266807 	  0.091995
23.009409 	 266876 	  0.091467
23.015416 	 266946 	  0.090940
23.021423 	 267016 	  0.090413
23.027431 	 267085 	  0.089886
23.033438 	 267155 	  0.089360
23.039445 	 267225 	  0.088834
23.045452 	 267294 	  0.088308
23.051459 	 267364 	  0.087783
23.057466 	 267434 	  0.087258
23.063473 	 267503 	  0.086733
23.069480 	 267573 	  0.086209
23.075488 	 267643 	  0.085685
23.081495 	 267712 	  0.085161
23.087502 	 267782 	  0.084638
23.093509 	 267852 	  0.084115
23.099516 	 267921 	  0.083592
23.105523 	 267991 	  0.083070
23.111530 	 268061 	  0.082548
23.117537 	 268130 	  0.082027
23.123545 	 268200 	  0.081505
23.129552 	 268270 	  0.080984
23.135559 	 268339 	  0.080464
23.141566 	 268409 	  0.079944
23.147573 	 268479 	  0.079424
23.153580 	 268548 	  0.078904
23.159587 	 268618 	  0.078385
23.165594 	 268688 	  0.077866
23.171602 	 268757 	  0.077347
23.177609 	 268827 	  0.076829
23.183616 	 268897 	  0.076311
23.189623 	 268966 	  0.075794
23.195630 	 269036 	  0.075276
23.201637 	 269106 	  0.074759
23.207644 	 269175 	  0.074243
23.213651 	 269245 	  0.073727
23.219659 	 269315 	  0.073211
23.225666 	 269384 	  0.072695
23.231673 	 269454 	  0.072180
23.237680 	 269524 	  0.071665
23.243687 	 269593 	  0.071150
23.249694 	 269663 	  0.070636
23.255701 	 269733 	  0.070122
23.261708 	 269803 	  0.069608
23.267716 	 269872 	  0.069095
23.273723 	 269942 	  0.068582
23.279730 	 270012 	  0.068069
23.285737 	 270081 	  0.067557
23.291744 	 270151 	  0.067045
23.297751 	 270221 	  0.066533
23.303758 	 270290 	  0.066022
23.309765 	 270360 	  0.065511
23.315773 	 270430 	  0.065000
23.321780 	 270499 	  0.064490
23.327787 	 270569 	  0.063980
23.333794 	 270639 	  0.063470
23.339801 	 270708 	  0.062961
23.345808 	 270778 	  0.062452
23.351815 	 270848 	  0.061943
23.357822 	 270917 	  0.061435
23.363830 	 270987 	  0.060926
23.369837 	 271057 	  0.060419
23.375844 	 271126 	  0.059911
23.381851 	 271196 	  0.059404
23.387858 	 271266 	  0.058897
23.393865 	 271335 	  0.058391
23.399872 	 271405 	  0.057885
23.405879 	 271475 	  0.057379
23.411887 	 271544 	  0.056873
23.417894 	 271614 	  0.056368
23.423901 	 271684 	  0.055863
23.429908 	 271753 	  0.055358
23.435915 	 271823 	  0.054854
23.441922 	 271893 	  0.054350
23.447929 	 271962 	  0.053847
23.453936 	 272032 	  0.053343
23.459944 	 272102 	  0.052840
23.465951 	 272171 	  0.052338
23.471958 	 272241 	  0.051835
23.477965 	 272311 	  0.051333
23.483972 	 272380 	  0.050831
23.489979 	 272450 	  0.050330
23.495986 	 272520 	  0.049829
23.501993 	 272589 	  0.049328
23.508001 	 272659 	  0.048828
23.514008 	 272729 	  0.048327
23.520015 	 272798 	  0.047828
23.526022 	 272868 	  0.047328
23.532029 	 272938 	  0.046829
23.538036 	 273008 	  0.046330
23.544043 	 273077 	  0.045831
23.550050 	 273147 	  0.045333
23.556058 	 273217 	  0.044835
23.562065 	 273286 	  0.044337
23.568072 	 273356 	  0.043840
23.574079 	 273426 	  0.043343
23.580086 	 273495 	  0.042846
23.586093 	 273565 	  0.042350
23.592100 	 273635 	  0.041854
23.598107 	 273704 	  0.041358
23.604115 	 273774 	  0.040862
23.610122 	 273844 	  0.040367
23.616129 	 273913 	  0.039872
23.622136 	 273983 	  0.039378
23.628143 	 274053 	  0.038884
23.634150 	 274122 	  0.038390
23.640157 	 274192 	  0.037896
23.646164 	 274262 	  0.037403
23.652172 	 274331 	  0.036910
23.658179 	 274401 	  0.036417
23.664186 	 274471 	  0.035924
23.670193 	 274540 	  0.035432
23.676200 	 274610 	  0.034941
23.682207 	 274680 	  0.034449
23.688214 	 274749 	  0.033958
23.694221 	 274819 	  0.033467
23.700229 	 274889 	  0.032976
23.706236 	 274958 	  0.032486
23.712243 	 275028 	  0.031996
23.718250 	 275098 	  0.031506
23.724257 	 275167 	  0.031017
23.730264 	 275237 	  0.030528
23.736271 	 275307 	  0.030039
23.742278 	 275376 	  0.029551
23.748286 	 275446 	  0.029063
23.754293 	 275516 	  0.028575
23.760300 	 275585 	  0.028087
23.766307 	 275655 	  0.027600
23.772314 	 275725 	  0.027113
23.778321 	 275794 	  0.026626
23.784328 	 275864 	  0.026140
23.790335 	 275934 	  0.025654
23.796343 	 276004 	  0.025168
23.802350 	 276073 	  0.024683
23.808357 	 276143 	  0.024198
23.814364 	 276213 	  0.023713
23.820371 	 276282 	  0.023228
23.826378 	 276352 	  0.022744
23.832385 	 276422 	  0.022260
23.838392 	 276491 	  0.021776
23.844400 	 276561 	  0.021293
23.850407 	 276631 	  0.020810
23.856414 	 276700 	  0.020327
23.862421 	 276770 	  0.019844
23.868428 	 276840 	  0.019362
23.874435 	 276909 	  0.018880
23.880442 	 276979 	  0.018399
23.886449 	 277049 	  0.017917
23.892457 	 277118 	  0.017436
23.898464 	 277188 	  0.016956
23.904471 	 277258 	  0.016475
23.910478 	 277327 	  0.015995
23.916485 	 277397 	  0.015515
23.922492 	 277467 	  0.015036
23.928499 	 277536 	  0.014557
23.934507 	 277606 	  0.014078
23.940514 	 277676 	  0.013599
23.946521 	 277745 	  0.013121
23.952528 	 277815 	  0.012642
23.958535 	 277885 	  0.012165
23.964542 	 277954 	  0.011687
23.970549 	 278024 	  0.011210
23.976556 	 278094 	  0.010733
23.982564 	 278163 	  0.010256
23.988571 	 278233 	  0.009780
23.994578 	 278303 	  0.009304
24.000585 	 278372 	  0.008828
24.006592 	 278442 	  0.008353
24.012599 	 278512 	  0.007878
24.018606 	 278581 	  0.007403
24.024613 	 278651 	  0.006928
24.030621 	 278721 	  0.006454
24.036628 	 278790 	  0.005980
24.042635 	 278860 	  0.005506
24.048642 	 278930 	  0.005033
24.054649 	 279000 	  0.004559
